C3-A1,C4-A2,F3-A1,F4-A2,F7-A1,F8-A2,Fp1-A1,Fp2-A2,O1-A1,O2-A2,P3-A1,P4-A2,T3-A1,T4-A2,T5-A1,T6-A2,LABEL
14.76462959,-2.75272755,17.26710918,-5.155107958,-7.757686732,-7.757686732,10.86076143,-5.155107958,9.759670405,7.657587549,12.16205081,-11.76165408,-5.655603876,-12.56244755,5.455405509,-11.06095979,NORMAL
14.46433204,-2.952925917,17.26710918,-4.854810407,-8.158083467,-7.257190814,10.66056306,-4.454413672,9.959868772,7.857785916,12.36224918,-11.76165408,-6.05600061,-11.36125734,6.356298161,-13.4633402,NORMAL
14.26413367,-4.254215305,21.97177081,-6.256198978,-8.658579385,-7.757686732,10.56046387,-4.154116121,10.36026551,7.9578851,12.36224918,-11.16105898,-6.05600061,-12.66254673,7.357289998,-13.16304265,NORMAL
14.56443122,-3.953917754,21.77157244,-7.457389181,-8.758678569,-7.15709163,10.36026551,-3.653620203,10.66056306,8.25818265,12.36224918,-10.46036469,-6.556496529,-12.96284428,7.9578851,-10.16006714,NORMAL
14.46433204,-3.953917754,20.47028305,-6.956893263,-8.658579385,-7.257190814,10.05996796,-2.152132448,10.96086061,8.458381018,12.36224918,-11.06095979,-5.755703059,-13.4633402,8.458381018,-10.16006714,NORMAL
14.16403449,-5.355306325,21.47127489,-6.556496529,-8.458381018,-9.859769589,9.759670405,-0.55054551,11.46135653,8.158083467,12.46234836,-11.76165408,-6.05600061,-13.56343938,9.159075303,-13.4633402,NORMAL
14.16403449,-5.755703059,18.9687953,-7.757686732,-8.358281834,-11.06095979,9.459372854,-0.050049592,11.56145571,7.357289998,12.46234836,-11.76165408,-6.956893263,-11.06095979,9.959868772,-14.76462959,NORMAL
14.16403449,-6.256198978,21.47127489,-8.958876936,-7.857785916,-9.659571221,8.858777752,-0.250247959,11.46135653,6.956893263,12.16205081,-11.76165408,-6.856794079,-8.057984283,10.26016632,-14.0639353,NORMAL
13.86373693,-6.356298161,29.77950713,-9.559472038,-7.257190814,-8.358281834,8.25818265,0.050049592,11.26115816,7.056992447,11.76165408,-11.66155489,-7.557488365,-7.15709163,10.26016632,-14.16403449,NORMAL
13.36324102,-6.556496529,30.07980468,-9.659571221,-6.656595712,-6.956893263,7.9578851,1.851834897,11.46135653,7.056992447,11.26115816,-11.36125734,-7.15709163,-6.656595712,10.56046387,-14.36423285,NORMAL
12.76264591,-8.658579385,26.77653162,-9.859769589,-5.755703059,-5.455405509,7.257190814,3.953917754,11.46135653,6.656595712,10.86076143,-10.56046387,-4.854810407,-7.15709163,11.16105898,-13.76363775,NORMAL
12.16205081,-9.05897612,24.17395285,-10.16006714,-4.754711223,-5.955901427,6.156099794,4.854810407,11.56145571,6.656595712,10.36026551,-10.16006714,-4.754711223,-7.857785916,11.46135653,-14.6645304,NORMAL
11.56145571,-8.458381018,18.76859693,-10.16006714,-4.154116121,-6.356298161,5.455405509,5.455405509,11.56145571,7.257190814,9.659571221,-10.46036469,-2.952925917,-7.15709163,11.46135653,-15.06492714,NORMAL
11.16105898,-9.859769589,13.06294347,-10.46036469,-3.253223468,-4.554512856,4.854810407,5.855802243,11.26115816,7.257190814,8.858777752,-10.26016632,1.251239796,-5.955901427,11.46135653,-12.96284428,NORMAL
10.56046387,-9.259174487,3.453421836,-10.86076143,-2.352330816,-4.754711223,3.953917754,6.156099794,11.26115816,7.257190814,8.25818265,-9.559472038,1.251239796,-6.05600061,11.86175326,-12.56244755,NORMAL
9.959868772,-7.857785916,-4.154116121,-10.76066224,-1.551537346,-8.158083467,2.852826734,6.956893263,11.26115816,7.657587549,7.357289998,-9.359273671,0.150148775,-6.656595712,12.06195163,-14.96482795,NORMAL
8.858777752,-10.16006714,2.152132448,-10.86076143,-0.650644694,-8.758678569,1.851834897,7.657587549,10.86076143,7.357289998,6.05600061,-9.659571221,2.852826734,-6.05600061,12.06195163,-14.6645304,NORMAL
8.25818265,-9.05897612,1.551537346,-11.76165408,0.450446326,-4.854810407,0.650644694,9.05897612,10.26016632,6.656595712,4.854810407,-9.05897612,4.254215305,-6.05600061,11.76165408,-11.66155489,NORMAL
8.25818265,-7.15709163,-15.36522469,-11.66155489,1.051041428,-3.85381857,-0.050049592,11.16105898,10.26016632,6.156099794,3.953917754,-8.358281834,4.654612039,-8.057984283,11.56145571,-12.26215,NORMAL
7.557488365,-10.46036469,-13.86373693,-11.36125734,1.65163653,-7.757686732,-1.151140612,12.16205081,10.05996796,5.755703059,2.852826734,-8.057984283,6.756694896,-8.758678569,11.26115816,-16.16601816,NORMAL
6.756694896,-10.86076143,7.857785916,-11.16105898,2.852826734,-10.56046387,-2.152132448,10.96086061,9.459372854,4.95490959,2.252231632,-7.557488365,7.257190814,-7.257190814,10.96086061,-18.06790265,NORMAL
6.756694896,-9.859769589,14.56443122,-10.16006714,3.753719387,-11.46135653,-3.053025101,9.659571221,8.758678569,4.354314488,1.351338979,-6.556496529,6.656595712,-6.556496529,10.86076143,-17.16700999,NORMAL
6.756694896,-12.8627451,7.357289998,-10.26016632,4.554512856,-10.76066224,-3.85381857,9.05897612,7.9578851,4.254215305,0.050049592,-5.355306325,7.357289998,-6.05600061,10.26016632,-14.36423285,NORMAL
6.05600061,-9.659571221,6.656595712,-11.76165408,5.155107958,-6.356298161,-4.754711223,9.459372854,6.956893263,3.653620203,-0.950942245,-3.653620203,8.158083467,-4.754711223,9.359273671,-9.05897612,NORMAL
5.455405509,-6.356298161,10.56046387,-10.26016632,5.755703059,-2.652628367,-5.355306325,10.05996796,6.356298161,3.453421836,-1.451438163,-2.152132448,9.05897612,-4.154116121,8.25818265,-5.655603876,NORMAL
5.255207141,-15.06492714,13.26314183,-8.158083467,6.456397345,-3.253223468,-5.655603876,9.959868772,5.755703059,3.153124285,-2.052033265,-0.950942245,11.16105898,-3.653620203,7.357289998,-6.05600061,NORMAL
4.654612039,-19.86968795,16.26611734,-9.05897612,6.956893263,-3.053025101,-5.955901427,10.36026551,4.654612039,2.552529183,-2.952925917,-0.350347143,12.46234836,-1.851834897,6.656595712,-6.856794079,NORMAL
4.254215305,-14.76462959,18.76859693,-9.259174487,7.257190814,-2.152132448,-6.356298161,10.96086061,3.453421836,1.65163653,-3.653620203,0.050049592,13.36324102,-0.350347143,6.05600061,-6.856794079,NORMAL
4.254215305,-13.76363775,19.5693904,-8.057984283,7.9578851,-3.553521019,-6.356298161,11.26115816,2.552529183,0.950942245,-3.953917754,0.950942245,13.36324102,-0.250247959,5.155107958,-8.758678569,NORMAL
4.254215305,-14.96482795,18.76859693,-7.557488365,8.858777752,-3.353322652,-6.356298161,12.46234836,1.551537346,0.050049592,-4.554512856,1.65163653,12.46234836,0.350347143,3.953917754,-9.359273671,NORMAL
4.354314488,-13.26314183,19.36919203,-5.755703059,8.858777752,-1.451438163,-6.656595712,12.46234836,0.350347143,-0.050049592,-4.854810407,1.951934081,11.76165408,1.65163653,2.75272755,-6.856794079,NORMAL
3.753719387,-14.76462959,20.47028305,-4.254215305,8.858777752,-1.451438163,-6.856794079,9.459372854,-0.850843061,-0.350347143,-5.055008774,2.452429999,11.56145571,2.452429999,1.551537346,-5.155107958,NORMAL
2.75272755,-16.56641489,18.3682002,-5.155107958,9.359273671,-1.151140612,-6.656595712,7.657587549,-1.851834897,-1.251239796,-5.355306325,3.453421836,11.76165408,2.452429999,0.650644694,-4.454413672,NORMAL
2.552529183,-16.76661326,16.96681163,-5.055008774,9.05897612,1.551537346,-6.656595712,9.359273671,-2.452429999,-2.352330816,-5.955901427,4.254215305,12.46234836,1.351338979,0.150148775,-2.052033265,NORMAL
3.453421836,-17.46730755,17.56740673,-2.652628367,8.858777752,3.153124285,-6.656595712,12.16205081,-3.553521019,-2.952925917,-6.05600061,4.354314488,12.66254673,-0.250247959,-0.650644694,-0.050049592,NORMAL
3.953917754,-14.76462959,15.06492714,-1.851834897,9.359273671,1.951934081,-6.356298161,13.56343938,-4.554512856,-3.653620203,-6.256198978,4.95490959,12.16205081,-1.251239796,-2.052033265,-0.250247959,NORMAL
3.353322652,-12.96284428,12.06195163,-1.551537346,9.659571221,-0.250247959,-6.256198978,12.46234836,-5.455405509,-5.055008774,-6.556496529,5.155107958,11.16105898,-2.052033265,-2.952925917,-0.850843061,NORMAL
2.452429999,-17.36720836,10.05996796,-0.250247959,9.459372854,-1.751735714,-5.955901427,10.56046387,-5.955901427,-5.955901427,-6.556496529,4.654612039,9.359273671,-2.652628367,-3.553521019,-0.050049592,NORMAL
1.551537346,-19.5693904,7.857785916,0.750743877,9.459372854,-1.551537346,-5.455405509,9.159075303,-6.556496529,-5.755703059,-6.256198978,5.255207141,9.359273671,-2.952925917,-4.154116121,1.65163653,NORMAL
1.051041428,-19.26909285,8.858777752,1.551537346,9.459372854,-1.551537346,-4.854810407,8.458381018,-7.257190814,-6.05600061,-6.356298161,6.456397345,10.86076143,-3.053025101,-4.554512856,2.252231632,NORMAL
1.251239796,-21.07087816,5.255207141,2.152132448,9.659571221,-0.650644694,-4.554512856,8.758678569,-7.757686732,-7.257190814,-6.256198978,5.155107958,10.96086061,-3.053025101,-5.055008774,1.851834897,NORMAL
1.251239796,-18.86869612,-2.152132448,2.552529183,9.959868772,2.852826734,-3.953917754,10.05996796,-8.158083467,-8.057984283,-5.955901427,4.054016938,10.66056306,-2.452429999,-5.755703059,4.254215305,NORMAL
0.750743877,-16.56641489,1.951934081,4.254215305,10.36026551,4.654612039,-3.253223468,9.759670405,-8.458381018,-8.057984283,-5.655603876,5.555504692,10.26016632,-1.751735714,-6.256198978,7.657587549,NORMAL
0.450446326,-22.77256428,-5.955901427,5.555504692,10.86076143,3.053025101,-2.652628367,8.158083467,-8.658579385,-7.857785916,-5.455405509,6.156099794,7.9578851,-1.751735714,-6.356298161,7.857785916,NORMAL
0.350347143,-25.87563897,-43.89349203,5.255207141,10.86076143,1.65163653,-1.851834897,5.855802243,-8.458381018,-7.557488365,-5.055008774,5.155107958,8.25818265,-1.851834897,-6.556496529,8.25818265,NORMAL
0.050049592,-20.1699855,-52.80231937,5.855802243,10.36026551,0.150148775,-1.151140612,3.353322652,-8.658579385,-7.15709163,-4.754711223,5.155107958,11.26115816,-2.052033265,-6.656595712,10.05996796,NORMAL
-0.050049592,-17.06691081,-15.56542306,7.056992447,10.56046387,-1.251239796,-0.350347143,2.552529183,-8.958876936,-6.956893263,-4.154116121,4.554512856,10.66056306,-2.352330816,-6.956893263,10.26016632,NORMAL
-0.55054551,-16.86671244,-3.553521019,7.9578851,10.96086061,0.650644694,0.050049592,4.95490959,-8.758678569,-6.956893263,-3.85381857,3.353322652,8.758678569,-1.551537346,-6.956893263,10.86076143,NORMAL
-1.451438163,-12.56244755,-25.47524224,9.659571221,10.86076143,2.75272755,0.350347143,7.857785916,-8.458381018,-6.556496529,-3.253223468,3.653620203,9.05897612,0.050049592,-6.856794079,12.76264591,NORMAL
-1.851834897,-6.356298161,-24.87464714,10.96086061,10.86076143,1.551537346,0.950942245,8.858777752,-8.458381018,-5.755703059,-2.75272755,3.953917754,8.858777752,2.152132448,-6.856794079,12.46234836,NORMAL
-1.551537346,-3.353322652,-3.85381857,9.959868772,10.56046387,0.050049592,1.351338979,7.9578851,-8.358281834,-5.055008774,-2.352330816,3.653620203,9.659571221,4.054016938,-6.856794079,11.76165408,NORMAL
-1.751735714,-5.055008774,4.054016938,9.359273671,10.05996796,-0.350347143,1.851834897,5.455405509,-7.857785916,-4.554512856,-2.052033265,3.753719387,11.86175326,6.05600061,-6.556496529,12.46234836,NORMAL
-2.452429999,-9.559472038,0.350347143,10.36026551,10.56046387,-1.251239796,2.152132448,4.054016938,-7.15709163,-3.85381857,-1.451438163,2.852826734,10.66056306,6.456397345,-6.05600061,13.26314183,NORMAL
-3.253223468,-12.96284428,1.351338979,10.86076143,10.66056306,-0.650644694,2.552529183,5.155107958,-6.656595712,-2.75272755,-0.950942245,1.65163653,7.657587549,6.756694896,-6.05600061,13.56343938,NORMAL
-3.953917754,-14.0639353,15.76562142,10.96086061,10.56046387,0.050049592,3.053025101,4.95490959,-6.256198978,-1.851834897,-0.850843061,2.452429999,7.257190814,7.9578851,-5.755703059,14.26413367,NORMAL
-4.754711223,-13.56343938,31.08079652,10.86076143,10.56046387,-0.350347143,3.353322652,2.252231632,-5.455405509,-0.850843061,-0.850843061,3.053025101,6.956893263,8.758678569,-5.155107958,14.16403449,NORMAL
-5.155107958,-8.958876936,31.88158999,10.26016632,9.759670405,-1.551537346,3.453421836,1.251239796,-4.554512856,0.150148775,-0.850843061,1.851834897,6.05600061,8.158083467,-4.554512856,13.66353857,NORMAL
-5.155107958,-0.250247959,28.97871366,10.96086061,8.558480201,-1.251239796,3.653620203,3.653620203,-3.85381857,0.950942245,-0.55054551,1.65163653,6.656595712,7.857785916,-4.454413672,13.96383612,NORMAL
-6.256198978,3.753719387,31.98168917,12.66254673,8.458381018,-0.050049592,3.953917754,5.155107958,-2.952925917,1.351338979,-0.050049592,1.851834897,6.456397345,7.657587549,-3.653620203,14.26413367,NORMAL
-7.257190814,0.050049592,31.38109407,13.26314183,8.458381018,0.150148775,4.054016938,4.654612039,-1.851834897,2.452429999,-0.050049592,0.350347143,5.155107958,6.756694896,-2.75272755,13.36324102,NORMAL
-7.757686732,-2.452429999,27.17692836,13.56343938,8.158083467,0.350347143,4.554512856,5.455405509,-1.151140612,3.753719387,0.050049592,0.150148775,5.255207141,6.356298161,-2.152132448,12.66254673,NORMAL
-8.158083467,2.75272755,24.4742504,14.26413367,8.458381018,2.452429999,5.255207141,7.9578851,-0.55054551,4.554512856,0.350347143,1.251239796,5.855802243,6.456397345,-1.751735714,13.06294347,NORMAL
-8.658579385,3.453421836,20.77058061,15.16502632,8.25818265,4.354314488,5.255207141,8.558480201,0.150148775,4.95490959,0.150148775,0.050049592,6.456397345,5.755703059,-0.950942245,13.86373693,NORMAL
-8.958876936,-6.256198978,17.56740673,15.06492714,6.956893263,3.653620203,5.255207141,7.357289998,0.950942245,5.755703059,0.050049592,-1.751735714,6.756694896,4.854810407,-0.650644694,12.96284428,NORMAL
-9.859769589,-10.16006714,13.96383612,12.76264591,6.456397345,2.552529183,5.755703059,5.755703059,1.65163653,6.356298161,0.150148775,-1.151140612,5.555504692,5.155107958,-0.55054551,11.26115816,NORMAL
-10.76066224,-2.452429999,9.159075303,10.66056306,6.956893263,1.351338979,5.855802243,3.053025101,2.552529183,6.756694896,0.350347143,-1.151140612,3.153124285,4.95490959,0.050049592,9.359273671,NORMAL
-10.56046387,0.950942245,5.855802243,10.96086061,6.05600061,0.050049592,6.05600061,1.65163653,3.653620203,7.557488365,0.450446326,-2.352330816,1.351338979,3.753719387,0.650644694,7.357289998,NORMAL
-10.86076143,-1.751735714,1.951934081,11.56145571,4.854810407,0.350347143,6.356298161,2.252231632,4.254215305,8.25818265,0.650644694,-2.452429999,1.551537346,3.353322652,0.650644694,6.456397345,NORMAL
-11.96185245,-0.050049592,-1.151140612,11.56145571,4.554512856,1.351338979,6.656595712,2.152132448,4.554512856,8.758678569,0.450446326,-2.652628367,1.851834897,2.852826734,0.750743877,6.356298161,NORMAL
-12.66254673,4.054016938,-5.955901427,12.16205081,4.654612039,1.051041428,6.956893263,2.252231632,4.95490959,9.05897612,0.350347143,-3.953917754,0.750743877,1.65163653,1.051041428,4.854810407,NORMAL
-13.56343938,5.255207141,-22.87266346,11.26115816,4.354314488,1.351338979,7.257190814,2.152132448,5.555504692,9.359273671,0.650644694,-4.454413672,0.050049592,1.251239796,1.551537346,3.753719387,NORMAL
-14.46433204,3.753719387,-41.69130999,8.758678569,3.353322652,1.351338979,7.257190814,-0.350347143,6.05600061,9.359273671,0.650644694,-4.254215305,0.750743877,1.351338979,1.851834897,3.153124285,NORMAL
-14.76462959,1.251239796,-45.99557488,8.558480201,2.452429999,0.150148775,7.657587549,-2.652628367,6.456397345,9.459372854,0.950942245,-5.055008774,0.750743877,0.050049592,1.951934081,1.851834897,NORMAL
-14.76462959,-0.850843061,-55.00450141,8.858777752,1.65163653,1.551537346,7.9578851,-2.652628367,6.956893263,9.659571221,0.950942245,-5.455405509,1.251239796,-1.151140612,2.152132448,2.852826734,NORMAL
-15.36522469,-0.950942245,-75.02433814,7.357289998,0.950942245,3.653620203,7.857785916,-3.653620203,7.257190814,9.659571221,1.051041428,-6.256198978,2.252231632,-1.751735714,2.252231632,5.155107958,NORMAL
-16.56641489,0.050049592,-77.126421,6.756694896,0.450446326,2.152132448,8.158083467,-5.155107958,7.557488365,9.659571221,1.65163653,-7.857785916,0.650644694,-2.75272755,2.552529183,2.75272755,NORMAL
-16.86671244,2.552529183,-61.61104753,6.656595712,0.350347143,0.650644694,8.858777752,-5.455405509,7.857785916,9.659571221,1.951934081,-8.458381018,-0.050049592,-4.154116121,2.75272755,-1.251239796,NORMAL
-16.86671244,4.95490959,-54.10360876,6.156099794,-0.050049592,1.051041428,9.05897612,-6.356298161,7.9578851,9.459372854,2.152132448,-7.857785916,1.951934081,-5.055008774,3.153124285,-1.551537346,NORMAL
-17.16700999,5.555504692,-50.8003357,8.458381018,-0.850843061,0.350347143,9.05897612,-7.257190814,8.25818265,9.659571221,2.552529183,-8.158083467,1.951934081,-6.05600061,3.453421836,-1.151140612,NORMAL
-17.96780346,6.356298161,-40.28992142,11.46135653,-1.551537346,0.750743877,9.359273671,-6.856794079,8.25818265,9.759670405,2.75272755,-8.958876936,0.450446326,-6.856794079,3.153124285,-2.152132448,NORMAL
-18.3682002,5.755703059,-32.38208591,9.759670405,-2.352330816,3.053025101,9.359273671,-7.457389181,8.25818265,9.459372854,2.452429999,-9.05897612,0.750743877,-7.257190814,3.053025101,-2.052033265,NORMAL
-18.3682002,0.950942245,-27.57732509,6.156099794,-2.75272755,2.152132448,9.359273671,-9.259174487,8.558480201,9.359273671,2.852826734,-9.959868772,-0.55054551,-8.057984283,3.353322652,-2.152132448,NORMAL
-18.3682002,-0.850843061,-16.56641489,5.455405509,-3.253223468,-0.250247959,9.359273671,-10.16006714,8.858777752,9.659571221,3.453421836,-11.06095979,-2.452429999,-9.259174487,3.953917754,-3.353322652,NORMAL
-18.06790265,1.251239796,-6.656595712,6.456397345,-3.85381857,0.050049592,9.659571221,-10.16006714,9.05897612,9.659571221,3.753719387,-10.76066224,-1.751735714,-10.46036469,4.254215305,-3.053025101,NORMAL
-18.06790265,0.650644694,-8.057984283,7.257190814,-4.154116121,0.750743877,10.05996796,-10.16006714,9.159075303,9.659571221,4.354314488,-10.16006714,-3.253223468,-10.76066224,4.554512856,-2.452429999,NORMAL
-17.46730755,0.050049592,-11.06095979,7.357289998,-4.154116121,0.150148775,9.959868772,-10.86076143,9.459372854,9.659571221,4.854810407,-10.56046387,-6.956893263,-10.56046387,4.654612039,-3.353322652,NORMAL
-16.56641489,2.252231632,-7.557488365,6.356298161,-4.254215305,-0.250247959,9.05897612,-12.56244755,9.459372854,9.659571221,4.95490959,-11.16105898,-7.857785916,-11.06095979,4.654612039,-4.154116121,NORMAL
-16.26611734,0.750743877,-6.356298161,4.95490959,-4.754711223,-0.350347143,8.458381018,-13.76363775,9.05897612,9.359273671,4.95490959,-11.66155489,-8.057984283,-11.46135653,4.554512856,-4.454413672,NORMAL
-15.06492714,0.150148775,-12.56244755,5.255207141,-5.955901427,-0.650644694,8.25818265,-13.56343938,9.159075303,9.159075303,4.95490959,-11.16105898,-8.958876936,-10.86076143,4.654612039,-4.854810407,NORMAL
-12.06195163,6.356298161,-19.16899367,5.855802243,-6.856794079,0.050049592,8.25818265,-13.16304265,9.759670405,8.758678569,5.555504692,-9.859769589,-7.757686732,-11.06095979,5.455405509,-4.754711223,NORMAL
-9.959868772,8.858777752,-22.47226673,4.95490959,-6.856794079,1.65163653,8.758678569,-13.4633402,10.05996796,8.758678569,6.356298161,-9.359273671,-6.556496529,-12.26215,5.755703059,-3.85381857,NORMAL
-9.859769589,4.054016938,-24.37415122,3.653620203,-6.956893263,1.351338979,8.558480201,-13.86373693,9.659571221,8.558480201,6.456397345,-10.76066224,-6.856794079,-12.8627451,5.555504692,-4.154116121,NORMAL
-9.05897612,2.75272755,-26.47623407,2.452429999,-7.557488365,0.150148775,7.657587549,-14.0639353,9.759670405,7.9578851,6.756694896,-10.86076143,-7.857785916,-12.66254673,6.05600061,-4.854810407,NORMAL
-7.457389181,6.956893263,-27.37712673,1.65163653,-8.057984283,0.450446326,7.257190814,-13.56343938,10.56046387,8.158083467,7.557488365,-9.659571221,-10.86076143,-12.56244755,6.756694896,-4.254215305,NORMAL
-6.556496529,8.758678569,-23.77355612,2.452429999,-8.958876936,1.251239796,7.056992447,-12.8627451,10.66056306,8.758678569,7.657587549,-8.358281834,-11.66155489,-11.76165408,7.056992447,-3.653620203,NORMAL
-5.955901427,6.156099794,-19.16899367,3.453421836,-10.16006714,1.251239796,6.956893263,-11.36125734,10.36026551,8.558480201,7.657587549,-7.457389181,-8.057984283,-11.36125734,6.956893263,-4.454413672,NORMAL
-4.254215305,4.554512856,-17.46730755,3.453421836,-10.46036469,1.351338979,6.356298161,-9.959868772,10.36026551,8.158083467,7.9578851,-7.757686732,-7.457389181,-11.96185245,7.357289998,-4.754711223,NORMAL
-2.75272755,6.456397345,-17.96780346,3.153124285,-10.56046387,0.750743877,5.255207141,-9.359273671,10.56046387,7.9578851,8.25818265,-8.758678569,-10.26016632,-12.26215,7.657587549,-4.854810407,NORMAL
-1.751735714,6.956893263,-20.47028305,2.552529183,-11.46135653,-0.050049592,4.254215305,-8.958876936,10.36026551,7.657587549,8.458381018,-8.358281834,-11.16105898,-10.86076143,7.9578851,-5.155107958,NORMAL
-0.250247959,2.252231632,-22.27206836,0.750743877,-12.06195163,-0.250247959,3.753719387,-7.457389181,10.36026551,7.357289998,8.458381018,-6.656595712,-13.4633402,-10.26016632,8.458381018,-5.455405509,NORMAL
0.750743877,-0.350347143,-15.96581979,-1.551537346,-12.36224918,-0.250247959,3.353322652,-6.556496529,10.56046387,7.357289998,8.558480201,-6.256198978,-15.66552224,-10.56046387,8.758678569,-5.355306325,NORMAL
1.051041428,0.950942245,-6.05600061,-3.253223468,-12.8627451,-0.250247959,2.75272755,-6.856794079,10.36026551,7.056992447,8.858777752,-5.955901427,-13.16304265,-9.05897612,8.858777752,-4.854810407,NORMAL
2.152132448,2.152132448,-1.751735714,-4.854810407,-13.4633402,0.150148775,2.252231632,-6.256198978,10.05996796,6.356298161,9.159075303,-5.455405509,-12.06195163,-6.556496529,9.05897612,-4.154116121,NORMAL
3.953917754,1.351338979,1.351338979,-6.256198978,-14.36423285,0.450446326,1.551537346,-4.854810407,9.459372854,5.755703059,9.359273671,-5.755703059,-15.36522469,-5.955901427,9.159075303,-3.85381857,NORMAL
4.654612039,0.950942245,11.16105898,-6.856794079,-15.06492714,-0.050049592,0.350347143,-3.953917754,9.159075303,5.755703059,9.359273671,-5.755703059,-17.16700999,-5.755703059,9.459372854,-3.85381857,NORMAL
5.255207141,2.152132448,21.77157244,-7.457389181,-14.96482795,-0.950942245,-0.050049592,-3.253223468,8.858777752,5.155107958,9.459372854,-4.754711223,-19.16899367,-4.254215305,9.459372854,-3.85381857,NORMAL
5.755703059,4.054016938,20.77058061,-8.358281834,-15.06492714,-1.751735714,-0.350347143,-2.352330816,8.458381018,4.254215305,9.659571221,-3.653620203,-21.37117571,-3.653620203,9.659571221,-3.85381857,NORMAL
5.155107958,4.254215305,10.66056306,-9.05897612,-15.26512551,-2.152132448,-0.850843061,-2.052033265,8.25818265,3.653620203,9.759670405,-2.952925917,-20.67048142,-3.953917754,9.759670405,-4.154116121,NORMAL
5.155107958,4.054016938,4.654612039,-9.859769589,-15.86572061,-2.352330816,-1.551537346,-1.851834897,7.857785916,3.153124285,9.659571221,-3.253223468,-21.87167163,-3.353322652,9.959868772,-3.653620203,NORMAL
6.356298161,4.554512856,1.251239796,-10.46036469,-16.86671244,-2.152132448,-2.052033265,-1.151140612,7.357289998,2.552529183,9.159075303,-4.254215305,-24.67444877,-2.652628367,9.759670405,-3.053025101,NORMAL
6.656595712,2.552529183,-2.452429999,-10.56046387,-17.46730755,-1.751735714,-2.152132448,-0.350347143,7.056992447,2.252231632,8.858777752,-3.253223468,-23.07286183,-1.451438163,9.759670405,-2.952925917,NORMAL
6.356298161,2.152132448,-0.050049592,-10.76066224,-17.36720836,-1.251239796,-2.952925917,0.450446326,6.656595712,2.152132448,8.458381018,-1.251239796,-20.97077897,-0.050049592,9.659571221,-2.452429999,NORMAL
6.356298161,4.054016938,6.05600061,-11.36125734,-17.66750591,-1.151140612,-4.254215305,0.950942245,5.755703059,1.851834897,8.158083467,-0.850843061,-18.56839857,0.050049592,9.359273671,-1.851834897,NORMAL
6.156099794,3.053025101,11.56145571,-12.26215,-18.06790265,-0.850843061,-4.754711223,1.051041428,5.155107958,1.351338979,7.357289998,-0.650644694,-11.36125734,0.150148775,9.05897612,-1.851834897,NORMAL
6.456397345,2.152132448,22.07186999,-12.8627451,-18.06790265,-0.650644694,-5.155107958,1.851834897,4.554512856,0.650644694,5.855802243,0.450446326,-8.057984283,1.351338979,8.758678569,-1.851834897,NORMAL
7.357289998,2.552529183,33.08278019,-12.8627451,-18.26810101,-1.251239796,-6.05600061,1.851834897,3.653620203,0.150148775,4.654612039,1.351338979,-11.16105898,1.851834897,8.158083467,-1.551537346,NORMAL
7.657587549,-0.050049592,38.88853285,-12.66254673,-17.96780346,-1.551537346,-6.856794079,1.351338979,2.852826734,-0.050049592,4.354314488,1.551537346,-11.06095979,1.851834897,7.557488365,-1.251239796,NORMAL
8.158083467,-0.250247959,43.99359121,-12.8627451,-17.06691081,-1.451438163,-7.457389181,2.152132448,2.252231632,-0.850843061,3.453421836,1.951934081,-9.859769589,2.152132448,6.956893263,-1.451438163,NORMAL
8.758678569,3.753719387,42.09170672,-13.16304265,-16.56641489,-1.551537346,-8.358281834,2.252231632,1.251239796,-1.451438163,1.65163653,1.65163653,-10.76066224,1.351338979,6.356298161,-1.451438163,NORMAL
7.9578851,2.152132448,32.28198672,-13.4633402,-16.46631571,-1.451438163,-9.259174487,2.152132448,0.650644694,-1.751735714,0.750743877,1.65163653,-9.359273671,1.051041428,5.555504692,-0.950942245,NORMAL
7.557488365,-1.751735714,30.68039979,-13.16304265,-15.56542306,-1.251239796,-9.559472038,2.852826734,0.050049592,-2.152132448,0.450446326,2.852826734,-11.06095979,2.252231632,4.854810407,-0.850843061,NORMAL
8.458381018,-1.451438163,32.78248264,-13.16304265,-14.76462959,-1.551537346,-9.359273671,2.452429999,-0.350347143,-3.053025101,0.050049592,3.753719387,-18.06790265,1.851834897,4.254215305,-0.950942245,NORMAL
8.858777752,-2.352330816,22.27206836,-13.56343938,-14.0639353,-1.751735714,-9.559472038,1.551537346,-0.850843061,-3.653620203,-0.55054551,4.354314488,-20.47028305,0.050049592,3.953917754,0.350347143,NORMAL
9.05897612,-2.75272755,7.857785916,-13.4633402,-12.8627451,-2.052033265,-10.16006714,2.852826734,-1.451438163,-4.154116121,-1.151140612,5.155107958,-16.46631571,0.150148775,3.453421836,0.950942245,NORMAL
9.159075303,-0.850843061,1.65163653,-12.56244755,-12.06195163,-2.952925917,-11.06095979,3.453421836,-2.352330816,-4.554512856,-2.352330816,5.155107958,-12.8627451,0.650644694,2.252231632,0.150148775,NORMAL
8.558480201,-0.850843061,-0.950942245,-12.36224918,-11.76165408,-2.952925917,-11.36125734,2.852826734,-2.952925917,-4.254215305,-3.553521019,5.255207141,-11.06095979,0.150148775,1.351338979,0.950942245,NORMAL
7.9578851,-1.251239796,-4.154116121,-11.46135653,-10.86076143,-2.052033265,-11.66155489,3.053025101,-3.353322652,-3.85381857,-4.154116121,7.056992447,-9.05897612,1.351338979,0.450446326,2.252231632,NORMAL
7.9578851,-0.050049592,-5.055008774,-9.659571221,-9.359273671,-1.751735714,-12.06195163,3.053025101,-4.154116121,-3.953917754,-4.754711223,8.858777752,-5.155107958,3.153124285,-0.350347143,1.851834897,NORMAL
7.9578851,-1.451438163,-5.755703059,-8.358281834,-7.857785916,-1.851834897,-12.66254673,3.053025101,-4.854810407,-4.554512856,-5.955901427,9.359273671,-3.653620203,3.753719387,-1.451438163,1.65163653,NORMAL
7.557488365,-3.553521019,-8.658579385,-7.457389181,-6.656595712,-1.751735714,-12.96284428,3.653620203,-5.355306325,-5.055008774,-7.15709163,8.858777752,-6.356298161,4.054016938,-2.052033265,1.851834897,NORMAL
7.056992447,-3.953917754,-8.458381018,-6.256198978,-5.655603876,-1.751735714,-13.26314183,3.153124285,-5.755703059,-5.755703059,-8.458381018,8.458381018,-6.05600061,4.854810407,-2.452429999,1.351338979,NORMAL
6.956893263,-3.653620203,-3.85381857,-5.155107958,-4.454413672,-1.551537346,-13.76363775,3.153124285,-6.356298161,-6.656595712,-9.05897612,8.558480201,-3.553521019,5.255207141,-3.053025101,1.65163653,NORMAL
7.257190814,-1.751735714,-1.551537346,-4.754711223,-3.053025101,-1.151140612,-14.0639353,4.654612039,-6.956893263,-7.257190814,-9.259174487,10.05996796,-1.751735714,7.056992447,-4.154116121,3.153124285,NORMAL
7.056992447,-1.751735714,-0.650644694,-4.554512856,-1.251239796,-0.850843061,-13.76363775,4.054016938,-7.457389181,-7.257190814,-9.659571221,12.06195163,4.054016938,9.05897612,-4.754711223,3.753719387,NORMAL
6.756694896,-3.553521019,1.851834897,-3.953917754,0.150148775,-0.350347143,-13.76363775,2.852826734,-8.057984283,-7.457389181,-10.16006714,12.36224918,7.357289998,9.359273671,-5.355306325,4.554512856,NORMAL
7.357289998,-1.251239796,2.552529183,-2.652628367,1.251239796,-0.250247959,-13.76363775,4.254215305,-8.758678569,-8.358281834,-10.86076143,11.76165408,-0.55054551,10.56046387,-6.256198978,4.95490959,NORMAL
7.357289998,1.351338979,4.554512856,-1.551537346,2.152132448,-0.650644694,-13.56343938,5.455405509,-9.559472038,-8.658579385,-11.66155489,12.96284428,-5.055008774,13.26314183,-7.15709163,4.554512856,NORMAL
6.456397345,2.75272755,9.659571221,-0.950942245,3.353322652,-0.950942245,-13.56343938,4.95490959,-9.959868772,-8.358281834,-11.96185245,14.16403449,-0.55054551,13.26314183,-7.457389181,4.254215305,NORMAL
6.156099794,3.453421836,9.359273671,-0.55054551,4.554512856,-0.55054551,-13.76363775,4.054016938,-10.46036469,-9.05897612,-11.76165408,13.56343938,1.251239796,10.56046387,-8.158083467,4.254215305,NORMAL
6.356298161,2.852826734,7.857785916,-0.050049592,5.555504692,-0.250247959,-13.26314183,3.953917754,-10.86076143,-10.46036469,-12.26215,13.96383612,3.353322652,8.858777752,-8.758678569,3.953917754,NORMAL
5.855802243,3.453421836,10.86076143,0.450446326,6.05600061,-0.55054551,-12.96284428,5.255207141,-11.06095979,-11.36125734,-12.96284428,15.06492714,6.356298161,8.858777752,-8.958876936,4.354314488,NORMAL
5.255207141,5.455405509,7.257190814,0.650644694,6.05600061,0.050049592,-13.26314183,3.953917754,-11.66155489,-11.46135653,-13.56343938,14.76462959,3.053025101,10.26016632,-9.559472038,6.156099794,NORMAL
4.554512856,8.858777752,-4.454413672,0.350347143,6.356298161,1.851834897,-13.26314183,0.750743877,-12.66254673,-11.66155489,-14.6645304,15.96581979,1.551537346,13.06294347,-10.56046387,8.858777752,NORMAL
3.453421836,10.86076143,-13.76363775,1.851834897,7.056992447,2.452429999,-12.8627451,3.353322652,-13.26314183,-11.96185245,-15.26512551,18.9687953,5.555504692,15.46532387,-11.16105898,9.759670405,NORMAL
2.75272755,10.36026551,-17.16700999,3.153124285,7.056992447,0.750743877,-13.16304265,7.056992447,-13.86373693,-12.8627451,-15.06492714,18.9687953,6.156099794,15.76562142,-11.76165408,7.657587549,NORMAL
2.152132448,11.16105898,-13.26314183,1.951934081,7.657587549,0.450446326,-13.26314183,3.453421836,-14.46433204,-13.86373693,-15.06492714,16.56641489,6.05600061,15.66552224,-12.66254673,7.557488365,NORMAL
1.65163653,12.96284428,-1.551537346,1.65163653,8.758678569,1.851834897,-12.66254673,0.650644694,-15.06492714,-14.46433204,-15.36522469,16.06591897,7.257190814,16.66651408,-13.16304265,10.36026551,NORMAL
1.251239796,13.36324102,9.359273671,3.153124285,8.858777752,1.951934081,-12.06195163,2.452429999,-15.36522469,-14.36423285,-15.56542306,17.56740673,5.155107958,17.7676051,-13.4633402,10.05996796,NORMAL
0.750743877,15.36522469,12.76264591,3.153124285,8.558480201,1.351338979,-11.76165408,1.251239796,-15.86572061,-15.26512551,-15.56542306,17.7676051,4.254215305,17.7676051,-13.86373693,7.9578851,NORMAL
0.650644694,18.06790265,10.36026551,3.153124285,8.858777752,1.65163653,-11.16105898,0.150148775,-16.46631571,-17.06691081,-15.36522469,16.96681163,6.356298161,18.46829938,-14.36423285,8.458381018,NORMAL
0.450446326,19.86968795,9.759670405,4.354314488,9.459372854,2.152132448,-10.46036469,2.152132448,-16.76661326,-17.7676051,-14.6645304,16.96681163,6.956893263,20.57038224,-14.46433204,8.858777752,NORMAL
-0.350347143,21.07087816,12.06195163,3.653620203,10.05996796,3.153124285,-9.859769589,0.350347143,-16.56641489,-17.06691081,-13.4633402,17.56740673,7.557488365,21.77157244,-14.36423285,10.26016632,NORMAL
-1.751735714,19.36919203,12.66254673,2.852826734,10.36026551,5.255207141,-9.259174487,-2.352330816,-16.46631571,-16.76661326,-12.56244755,17.56740673,7.9578851,22.37216754,-14.36423285,14.26413367,NORMAL
-3.053025101,18.66849775,17.86770428,4.554512856,10.36026551,5.455405509,-8.658579385,-1.151140612,-16.76661326,-17.36720836,-12.26215,17.86770428,6.456397345,22.57236591,-14.46433204,14.86472877,NORMAL
-3.85381857,21.37117571,30.07980468,4.854810407,10.36026551,3.453421836,-7.757686732,-0.950942245,-16.86671244,-18.26810101,-12.26215,17.26710918,5.855802243,19.96978714,-14.36423285,11.46135653,NORMAL
-4.454413672,22.07186999,39.48912795,4.254215305,10.36026551,2.252231632,-7.15709163,-2.052033265,-16.46631571,-18.9687953,-11.36125734,14.46433204,5.455405509,16.96681163,-13.86373693,10.66056306,NORMAL
-5.055008774,23.57335775,49.59914549,5.755703059,10.26016632,0.750743877,-6.856794079,-0.350347143,-15.96581979,-18.9687953,-10.26016632,13.26314183,5.455405509,16.66651408,-13.56343938,9.659571221,NORMAL
-5.755703059,27.47722591,58.1075761,4.95490959,9.959868772,0.650644694,-6.556496529,-2.052033265,-15.96581979,-18.06790265,-9.959868772,15.76562142,9.359273671,18.46829938,-13.4633402,9.159075303,NORMAL
-6.05600061,25.97573816,50.50003815,2.552529183,9.959868772,4.654612039,-5.955901427,-6.356298161,-15.86572061,-17.06691081,-9.959868772,16.36621653,12.96284428,19.96978714,-13.4633402,15.16502632,NORMAL
-6.656595712,23.47325856,35.4851606,4.554512856,10.05996796,6.456397345,-5.355306325,-4.454413672,-15.56542306,-16.86671244,-9.859769589,12.66254673,13.06294347,18.76859693,-13.26314183,16.96681163,NORMAL
-7.15709163,24.4742504,21.37117571,7.557488365,9.759670405,2.75272755,-4.854810407,-1.551537346,-15.06492714,-16.86671244,-9.659571221,10.56046387,13.56343938,16.86671244,-12.96284428,8.558480201,NORMAL
-7.257190814,21.37117571,7.257190814,4.95490959,9.159075303,2.75272755,-4.554512856,-4.854810407,-14.96482795,-16.26611734,-9.259174487,12.46234836,11.56145571,17.86770428,-12.66254673,8.758678569,NORMAL
-7.457389181,19.5693904,13.06294347,3.153124285,8.858777752,7.357289998,-3.85381857,-7.457389181,-14.46433204,-15.06492714,-8.158083467,12.76264591,8.758678569,17.16700999,-12.36224918,18.16800183,NORMAL
-7.15709163,22.37216754,28.27801938,5.255207141,9.159075303,9.159075303,-2.75272755,-5.955901427,-13.56343938,-13.4633402,-7.15709163,9.759670405,12.66254673,12.06195163,-11.76165408,19.5693904,NORMAL
-6.356298161,22.37216754,18.46829938,5.755703059,9.359273671,8.25818265,-1.251239796,-6.556496529,-12.36224918,-11.76165408,-6.356298161,7.357289998,21.17097734,9.459372854,-11.16105898,16.26611734,NORMAL
-5.655603876,22.87266346,4.054016938,5.455405509,8.858777752,7.557488365,-0.050049592,-7.257190814,-11.66155489,-11.36125734,-5.755703059,5.855802243,25.6754406,8.558480201,-10.56046387,15.46532387,NORMAL
-5.055008774,22.67246509,6.356298161,6.356298161,8.158083467,5.155107958,0.450446326,-5.655603876,-10.76066224,-10.56046387,-5.355306325,3.453421836,24.67444877,6.156099794,-9.959868772,10.66056306,NORMAL
-4.554512856,19.06889448,7.257190814,4.654612039,7.357289998,4.254215305,1.351338979,-7.557488365,-10.16006714,-8.358281834,-4.554512856,2.152132448,20.77058061,6.156099794,-9.559472038,9.05897612,NORMAL
-4.254215305,22.07186999,6.756694896,2.452429999,6.956893263,7.257190814,2.552529183,-11.36125734,-9.559472038,-6.356298161,-4.154116121,0.950942245,18.16800183,3.753719387,-9.359273671,16.06591897,NORMAL
-3.85381857,27.67742428,1.351338979,4.254215305,6.956893263,7.857785916,3.653620203,-9.05897612,-8.958876936,-5.955901427,-3.953917754,-1.451438163,15.96581979,-4.154116121,-8.958876936,15.06492714,NORMAL
-3.253223468,27.97772183,-24.87464714,5.755703059,6.156099794,3.953917754,4.254215305,-6.356298161,-8.158083467,-5.455405509,-3.85381857,-2.352330816,9.459372854,-7.15709163,-8.158083467,5.555504692,NORMAL
-2.452429999,30.17990387,-47.39696345,3.753719387,5.455405509,2.152132448,4.654612039,-9.259174487,-7.457389181,-4.154116121,-3.353322652,-0.950942245,2.75272755,-3.353322652,-7.557488365,3.453421836,NORMAL
-1.751735714,26.17593652,-49.79934386,3.353322652,5.155107958,2.852826734,5.155107958,-10.86076143,-6.556496529,-2.952925917,-2.75272755,-1.151140612,0.350347143,-1.251239796,-7.457389181,4.054016938,NORMAL
-1.151140612,19.96978714,-44.6942855,3.653620203,4.654612039,2.552529183,5.255207141,-9.359273671,-5.955901427,-1.851834897,-2.152132448,-1.851834897,0.150148775,0.350347143,-7.557488365,2.552529183,NORMAL
-0.250247959,23.2730602,-23.47325856,2.252231632,3.653620203,2.152132448,5.455405509,-10.46036469,-5.155107958,-0.55054551,-1.751735714,-2.452429999,0.050049592,2.152132448,-7.557488365,5.555504692,NORMAL
0.750743877,10.36026551,1.251239796,2.452429999,3.153124285,1.051041428,6.05600061,-11.16105898,-4.454413672,-0.250247959,-0.650644694,-4.754711223,-1.751735714,-0.050049592,-7.257190814,3.353322652,NORMAL
2.152132448,-9.05897612,-3.353322652,3.453421836,2.852826734,-2.052033265,6.656595712,-8.958876936,-3.553521019,-0.050049592,0.050049592,-5.455405509,-4.554512856,-0.950942245,-7.257190814,-9.959868772,NORMAL
3.453421836,-0.250247959,-21.97177081,1.251239796,1.65163653,-2.952925917,7.056992447,-9.05897612,-2.352330816,0.950942245,0.750743877,-3.553521019,-4.254215305,1.851834897,-6.856794079,-14.76462959,NORMAL
4.654612039,-3.553521019,-31.78149081,-0.950942245,0.650644694,0.150148775,7.657587549,-11.36125734,-0.55054551,2.452429999,2.452429999,-3.85381857,-2.75272755,1.251239796,-5.955901427,-6.356298161,NORMAL
5.755703059,-28.57831693,-35.68535897,0.050049592,0.350347143,0.950942245,8.458381018,-10.46036469,0.450446326,3.453421836,3.753719387,-5.655603876,-3.553521019,-2.452429999,-5.055008774,-6.956893263,NORMAL
7.257190814,-22.57236591,-24.27405203,1.051041428,-0.55054551,-3.053025101,8.858777752,-8.158083467,1.351338979,4.354314488,4.354314488,-6.356298161,-2.952925917,-4.854810407,-4.254215305,-18.06790265,NORMAL
8.25818265,-16.16601816,-0.050049592,-0.650644694,-1.551537346,-3.353322652,9.659571221,-8.758678569,2.852826734,4.854810407,5.155107958,-8.458381018,-1.751735714,-6.956893263,-3.553521019,-17.16700999,NORMAL
8.558480201,-37.48714427,12.66254673,-2.352330816,-2.652628367,2.252231632,10.26016632,-9.959868772,4.054016938,5.455405509,6.356298161,-9.559472038,-2.75272755,-9.359273671,-2.652628367,-4.454413672,NORMAL
9.359273671,-25.87563897,16.56641489,-1.451438163,-3.85381857,4.654612039,10.36026551,-8.358281834,4.654612039,6.656595712,7.056992447,-7.457389181,-2.352330816,-10.56046387,-2.152132448,0.050049592,NORMAL
10.66056306,-3.053025101,18.16800183,-0.950942245,-4.754711223,0.750743877,10.66056306,-6.256198978,5.755703059,7.657587549,7.9578851,-7.457389181,-1.751735714,-11.16105898,-1.151140612,-5.055008774,NORMAL
11.16105898,-29.3791104,9.959868772,-2.652628367,-5.355306325,-0.850843061,11.16105898,-6.956893263,7.257190814,8.25818265,9.05897612,-9.859769589,-5.355306325,-12.96284428,0.650644694,-5.655603876,NORMAL
11.16105898,-52.50202182,-6.656595712,-3.653620203,-6.05600061,1.65163653,11.46135653,-8.358281834,7.857785916,8.25818265,9.759670405,-10.86076143,-8.958876936,-14.6645304,2.252231632,-2.75272755,NORMAL
11.56145571,-43.29289693,-22.87266346,-4.154116121,-6.656595712,1.251239796,11.16105898,-6.256198978,8.158083467,8.158083467,10.66056306,-12.8627451,-8.158083467,-13.4633402,3.353322652,-6.05600061,NORMAL
12.16205081,-37.28694591,-26.77653162,-5.455405509,-6.956893263,-3.053025101,10.66056306,-3.85381857,8.25818265,7.857785916,10.96086061,-14.36423285,-7.257190814,-13.56343938,3.953917754,-12.36224918,NORMAL
12.96284428,-33.88357366,-16.16601816,-5.655603876,-7.857785916,-6.356298161,10.36026551,-3.85381857,8.458381018,7.056992447,10.66056306,-12.56244755,-8.458381018,-18.56839857,4.054016938,-17.06691081,NORMAL
13.66353857,-45.2948806,-3.653620203,-4.454413672,-8.458381018,-6.956893263,10.36026551,-3.553521019,8.858777752,6.656595712,10.96086061,-11.76165408,-9.959868772,-20.97077897,4.554512856,-20.77058061,NORMAL
14.16403449,-68.21759365,8.158083467,-5.355306325,-8.158083467,-6.256198978,10.36026551,-1.751735714,9.759670405,7.056992447,11.46135653,-12.26215,-10.56046387,-17.16700999,5.855802243,-21.87167163,NORMAL
13.96383612,-49.89944305,17.26710918,-7.15709163,-8.158083467,-5.655603876,10.26016632,-1.251239796,10.26016632,7.357289998,11.46135653,-11.66155489,-10.26016632,-14.46433204,6.756694896,-20.37018387,NORMAL
13.86373693,-15.36522469,16.56641489,-6.856794079,-8.158083467,-6.05600061,10.26016632,-2.052033265,10.36026551,6.756694896,11.86175326,-12.26215,-10.26016632,-15.06492714,7.357289998,-20.1699855,NORMAL
13.96383612,-9.959868772,18.76859693,-6.856794079,-7.757686732,-5.755703059,10.26016632,-1.751735714,10.86076143,6.756694896,12.46234836,-13.16304265,-10.26016632,-13.86373693,8.458381018,-20.47028305,NORMAL
13.86373693,-0.250247959,26.77653162,-7.857785916,-7.457389181,-4.854810407,10.05996796,0.450446326,11.16105898,7.657587549,12.36224918,-11.16105898,-8.958876936,-11.16105898,9.359273671,-20.37018387,NORMAL
13.86373693,9.459372854,20.87067979,-8.358281834,-7.557488365,-5.455405509,9.659571221,2.452429999,11.26115816,8.158083467,12.16205081,-10.46036469,-8.057984283,-9.859769589,9.759670405,-21.27107652,NORMAL
13.66353857,-0.050049592,8.158083467,-8.158083467,-7.457389181,-6.956893263,9.659571221,2.552529183,11.86175326,7.9578851,12.36224918,-12.66254673,-8.057984283,-10.16006714,10.56046387,-22.47226673,NORMAL
12.96284428,6.656595712,-1.751735714,-8.158083467,-7.15709163,-8.958876936,9.459372854,3.153124285,12.46234836,7.9578851,12.06195163,-13.16304265,-6.556496529,-10.26016632,11.26115816,-24.07385367,NORMAL
12.16205081,14.26413367,-18.66849775,-8.458381018,-6.356298161,-8.958876936,8.558480201,4.95490959,12.46234836,7.9578851,11.86175326,-11.46135653,-5.455405509,-7.757686732,11.56145571,-24.27405203,NORMAL
12.06195163,-1.551537346,-28.7785153,-9.859769589,-5.655603876,-5.055008774,7.357289998,5.455405509,12.36224918,7.9578851,11.26115816,-10.76066224,-5.355306325,-6.256198978,11.76165408,-19.86968795,NORMAL
11.56145571,-0.650644694,-24.07385367,-9.659571221,-4.754711223,-2.652628367,6.656595712,5.555504692,12.36224918,7.657587549,10.26016632,-11.06095979,-3.85381857,-8.158083467,11.86175326,-16.26611734,NORMAL
10.96086061,4.054016938,-23.67345693,-8.458381018,-3.85381857,-6.556496529,5.855802243,6.956893263,12.36224918,7.257190814,9.659571221,-11.06095979,-2.652628367,-10.76066224,11.86175326,-17.96780346,NORMAL
10.96086061,-9.659571221,-24.97474632,-10.46036469,-3.253223468,-7.857785916,4.854810407,7.657587549,12.06195163,6.956893263,9.159075303,-10.16006714,-2.652628367,-13.4633402,12.16205081,-17.7676051,NORMAL
10.86076143,-4.254215305,-19.26909285,-12.66254673,-2.952925917,-3.253223468,3.453421836,7.557488365,11.56145571,6.756694896,8.458381018,-9.559472038,-1.251239796,-15.96581979,12.06195163,-13.4633402,NORMAL
9.759670405,8.25818265,-17.06691081,-10.86076143,-2.052033265,-2.652628367,2.252231632,8.558480201,11.16105898,6.656595712,7.557488365,-9.259174487,-0.250247959,-16.26611734,11.86175326,-13.4633402,NORMAL
9.159075303,-5.055008774,-15.66552224,-9.359273671,-0.55054551,-6.556496529,1.051041428,9.759670405,10.66056306,6.456397345,6.456397345,-8.658579385,-0.050049592,-16.86671244,11.76165408,-16.86671244,NORMAL
9.359273671,-14.46433204,-9.05897612,-10.76066224,0.450446326,-8.158083467,0.150148775,9.359273671,10.66056306,6.356298161,5.255207141,-8.658579385,1.851834897,-18.9687953,11.76165408,-17.46730755,NORMAL
9.05897612,-3.653620203,-7.15709163,-10.76066224,1.351338979,-8.758678569,-0.55054551,8.558480201,10.26016632,6.156099794,4.054016938,-8.658579385,4.554512856,-18.56839857,11.46135653,-17.06691081,NORMAL
8.458381018,2.75272755,-7.15709163,-10.46036469,2.152132448,-7.857785916,-1.451438163,9.359273671,9.659571221,6.05600061,2.852826734,-7.257190814,5.155107958,-17.06691081,10.96086061,-16.56641489,NORMAL
7.9578851,-6.256198978,-1.551537346,-11.76165408,2.852826734,-3.253223468,-2.152132448,10.36026551,9.159075303,5.755703059,1.65163653,-6.556496529,5.455405509,-15.96581979,10.56046387,-13.76363775,NORMAL
7.857785916,-16.86671244,2.75272755,-11.36125734,3.753719387,-1.151140612,-3.253223468,10.56046387,8.858777752,5.455405509,0.950942245,-6.356298161,6.156099794,-11.66155489,10.36026551,-11.66155489,NORMAL
7.657587549,-13.86373693,5.555504692,-9.359273671,4.854810407,-4.154116121,-3.85381857,10.26016632,8.158083467,5.155107958,0.350347143,-4.754711223,7.257190814,-6.356298161,9.959868772,-12.96284428,NORMAL
6.956893263,-11.06095979,11.26115816,-9.959868772,6.05600061,-4.554512856,-3.953917754,10.05996796,7.557488365,4.654612039,-0.250247959,-3.253223468,8.758678569,-4.154116121,9.359273671,-12.56244755,NORMAL
6.05600061,-16.46631571,9.959868772,-10.56046387,6.756694896,-0.350347143,-4.554512856,10.96086061,6.756694896,4.354314488,-0.950942245,-2.75272755,8.858777752,-2.152132448,8.858777752,-7.857785916,NORMAL
5.555504692,-12.26215,-0.950942245,-8.358281834,6.956893263,0.750743877,-5.355306325,11.46135653,5.855802243,4.054016938,-1.851834897,-1.451438163,8.558480201,0.650644694,8.158083467,-4.554512856,NORMAL
5.555504692,-12.56244755,-0.250247959,-6.856794079,7.056992447,-1.751735714,-5.655603876,10.26016632,4.854810407,3.353322652,-2.352330816,-0.050049592,9.359273671,2.252231632,7.056992447,-5.755703059,NORMAL
4.95490959,-23.67345693,14.86472877,-7.557488365,7.857785916,-2.952925917,-5.755703059,9.159075303,3.753719387,2.152132448,-2.452429999,-0.350347143,9.459372854,3.053025101,6.456397345,-7.257190814,NORMAL
4.254215305,-15.06492714,19.36919203,-7.457389181,7.9578851,-1.851834897,-6.256198978,9.759670405,2.552529183,1.351338979,-2.952925917,-0.250247959,9.759670405,3.353322652,5.455405509,-6.556496529,NORMAL
3.653620203,-8.958876936,15.66552224,-6.356298161,8.158083467,-1.851834897,-6.656595712,10.86076143,1.051041428,0.650644694,-3.353322652,0.650644694,10.96086061,3.653620203,3.753719387,-5.355306325,NORMAL
2.852826734,-24.87464714,10.05996796,-6.256198978,9.159075303,-1.451438163,-6.556496529,11.46135653,-0.050049592,-0.250247959,-3.953917754,1.551537346,10.96086061,4.654612039,2.452429999,-4.554512856,NORMAL
2.452429999,-26.17593652,-9.959868772,-5.455405509,9.359273671,0.150148775,-6.356298161,11.26115816,-1.151140612,-0.650644694,-4.754711223,2.75272755,10.86076143,5.555504692,1.65163653,-2.452429999,NORMAL
1.65163653,-29.3791104,-18.56839857,-3.953917754,9.359273671,0.150148775,-6.556496529,10.56046387,-2.052033265,-0.950942245,-5.155107958,3.453421836,11.26115816,6.05600061,0.650644694,-0.350347143,NORMAL
0.750743877,-38.18783856,5.155107958,-3.553521019,9.659571221,-0.250247959,-6.556496529,9.759670405,-3.253223468,-2.352330816,-5.455405509,3.353322652,11.76165408,6.756694896,-0.350347143,0.650644694,NORMAL
0.450446326,-3.553521019,10.56046387,-3.253223468,9.459372854,0.050049592,-6.556496529,9.359273671,-4.154116121,-4.154116121,-6.05600061,3.453421836,13.26314183,6.956893263,-1.251239796,1.551537346,NORMAL
0.150148775,8.758678569,-12.26215,-2.052033265,9.359273671,-0.850843061,-6.556496529,9.05897612,-4.754711223,-4.754711223,-6.256198978,3.753719387,14.16403449,6.656595712,-2.052033265,2.75272755,NORMAL
-0.050049592,-45.69527733,-14.6645304,-1.251239796,9.759670405,-0.950942245,-6.256198978,9.759670405,-5.455405509,-4.854810407,-6.256198978,3.953917754,12.76264591,6.656595712,-2.952925917,4.254215305,NORMAL
0.050049592,-44.6942855,-7.857785916,-0.350347143,9.659571221,-1.151140612,-5.455405509,9.959868772,-6.256198978,-5.955901427,-6.556496529,4.654612039,12.66254673,6.956893263,-3.553521019,5.855802243,NORMAL
-0.050049592,18.66849775,-15.06492714,1.051041428,9.159075303,-5.455405509,-4.854810407,7.857785916,-6.856794079,-6.856794079,-6.356298161,5.255207141,13.66353857,7.056992447,-4.154116121,6.05600061,NORMAL
-1.551537346,37.98764019,-15.06492714,1.251239796,8.858777752,-6.956893263,-4.454413672,7.357289998,-7.457389181,-6.656595712,-6.05600061,5.455405509,12.16205081,7.257190814,-4.554512856,5.555504692,NORMAL
-1.851834897,48.39795529,-18.26810101,2.452429999,8.758678569,1.051041428,-3.85381857,10.66056306,-7.857785916,-6.856794079,-6.256198978,6.05600061,11.16105898,7.557488365,-5.155107958,7.9578851,NORMAL
-0.850843061,51.20073243,-33.38307774,6.356298161,9.459372854,6.356298161,-3.253223468,11.76165408,-8.057984283,-7.757686732,-6.256198978,6.156099794,10.96086061,7.357289998,-5.655603876,11.86175326,NORMAL
-0.650644694,-23.37315938,-28.7785153,7.257190814,9.959868772,2.152132448,-2.652628367,8.758678569,-8.458381018,-7.757686732,-5.955901427,5.555504692,9.05897612,7.056992447,-6.05600061,12.46234836,NORMAL
-1.851834897,-82.53177691,-8.158083467,4.654612039,9.159075303,-0.050049592,-2.052033265,5.855802243,-8.758678569,-7.257190814,-5.955901427,5.155107958,9.459372854,7.257190814,-6.356298161,11.56145571,NORMAL
-2.75272755,-53.20271611,3.353322652,4.854810407,8.858777752,2.252231632,-1.451438163,4.95490959,-8.958876936,-7.457389181,-5.755703059,5.555504692,12.46234836,7.657587549,-6.556496529,12.36224918,NORMAL
-2.952925917,-29.07881285,11.86175326,7.857785916,9.359273671,2.552529183,-0.850843061,5.555504692,-8.958876936,-7.757686732,-5.155107958,5.255207141,12.46234836,6.956893263,-6.656595712,13.06294347,NORMAL
-2.652628367,-29.9797055,19.26909285,9.05897612,9.359273671,1.551537346,-0.250247959,6.756694896,-9.05897612,-7.257190814,-4.754711223,4.254215305,10.86076143,6.156099794,-6.856794079,12.66254673,NORMAL
-2.452429999,-12.8627451,20.27008469,9.159075303,9.459372854,1.251239796,0.050049592,6.156099794,-8.958876936,-6.656595712,-4.454413672,3.453421836,10.56046387,6.456397345,-6.956893263,12.46234836,NORMAL
-2.952925917,-6.256198978,20.77058061,10.26016632,10.36026551,0.350347143,0.950942245,4.95490959,-8.758678569,-6.556496529,-3.85381857,3.453421836,9.759670405,6.456397345,-6.956893263,12.16205081,NORMAL
-3.553521019,-8.358281834,19.86968795,11.26115816,10.56046387,0.450446326,1.551537346,6.156099794,-8.458381018,-5.655603876,-3.253223468,3.453421836,8.758678569,5.455405509,-6.856794079,12.06195163,NORMAL
-4.154116121,1.851834897,19.26909285,12.06195163,9.759670405,3.053025101,1.851834897,8.458381018,-8.057984283,-4.554512856,-2.652628367,3.753719387,8.558480201,4.854810407,-6.856794079,13.26314183,NORMAL
-4.554512856,0.950942245,19.5693904,12.36224918,9.759670405,4.854810407,2.252231632,9.159075303,-7.557488365,-3.85381857,-2.152132448,3.353322652,8.458381018,4.254215305,-6.356298161,14.56443122,NORMAL
-4.254215305,-4.854810407,15.76562142,12.06195163,10.05996796,3.953917754,2.852826734,8.558480201,-6.956893263,-3.053025101,-1.851834897,2.252231632,8.458381018,3.053025101,-6.05600061,13.96383612,NORMAL
-3.953917754,-1.251239796,14.26413367,11.86175326,10.05996796,1.851834897,3.053025101,7.257190814,-6.256198978,-1.851834897,-1.251239796,2.75272755,7.857785916,2.452429999,-5.755703059,13.06294347,NORMAL
-4.454413672,2.852826734,14.16403449,12.66254673,10.05996796,1.351338979,3.453421836,6.456397345,-5.455405509,-0.650644694,-0.950942245,3.353322652,7.257190814,1.951934081,-5.355306325,13.86373693,NORMAL
-5.155107958,2.552529183,5.155107958,13.86373693,9.959868772,1.851834897,4.254215305,6.05600061,-4.754711223,0.050049592,-0.650644694,2.152132448,7.257190814,0.750743877,-4.554512856,14.86472877,NORMAL
-6.05600061,-8.658579385,0.050049592,14.16403449,9.759670405,0.750743877,4.554512856,4.95490959,-3.85381857,0.950942245,-0.250247959,1.051041428,7.056992447,0.450446326,-3.953917754,14.16403449,NORMAL
-6.856794079,-9.959868772,6.356298161,13.06294347,9.959868772,-0.350347143,4.654612039,4.654612039,-2.952925917,2.152132448,0.150148775,0.650644694,6.656595712,1.351338979,-3.553521019,12.66254673,NORMAL
-7.15709163,13.56343938,10.36026551,12.96284428,9.759670405,0.050049592,4.95490959,5.755703059,-1.851834897,2.852826734,0.650644694,-0.050049592,6.156099794,1.951934081,-2.952925917,12.36224918,NORMAL
-7.457389181,15.06492714,11.76165408,14.46433204,9.159075303,1.551537346,5.455405509,6.656595712,-0.850843061,3.653620203,0.650644694,0.050049592,4.95490959,1.65163653,-2.152132448,12.46234836,NORMAL
-8.358281834,4.854810407,16.56641489,15.16502632,8.758678569,2.252231632,5.255207141,6.756694896,-0.050049592,4.854810407,0.350347143,1.051041428,4.554512856,1.65163653,-1.751735714,12.06195163,NORMAL
-9.05897612,24.17395285,19.26909285,15.06492714,8.758678569,3.053025101,5.455405509,6.956893263,0.450446326,5.755703059,0.150148775,0.150148775,5.455405509,1.251239796,-1.251239796,11.76165408,NORMAL
-9.859769589,17.26710918,19.36919203,15.36522469,8.458381018,3.653620203,5.855802243,6.956893263,1.351338979,6.156099794,0.450446326,-0.950942245,4.95490959,0.150148775,-0.650644694,11.46135653,NORMAL
-10.56046387,-7.857785916,18.76859693,14.86472877,7.857785916,3.953917754,6.156099794,6.356298161,2.452429999,6.756694896,0.650644694,-1.451438163,3.153124285,-0.350347143,0.050049592,11.26115816,NORMAL
-11.16105898,7.056992447,17.46730755,13.36324102,7.257190814,3.753719387,6.356298161,4.354314488,3.153124285,7.357289998,0.750743877,-2.052033265,3.053025101,-0.850843061,0.150148775,10.26016632,NORMAL
-11.96185245,5.455405509,16.66651408,12.46234836,6.656595712,3.353322652,6.456397345,2.552529183,3.953917754,7.657587549,0.950942245,-2.652628367,3.353322652,-1.151140612,0.650644694,8.25818265,NORMAL
-12.66254673,-12.96284428,15.06492714,12.46234836,5.755703059,3.353322652,6.656595712,1.851834897,4.554512856,8.158083467,0.750743877,-2.75272755,3.053025101,-1.551537346,1.051041428,6.956893263,NORMAL
-12.96284428,15.36522469,13.86373693,12.96284428,5.255207141,3.053025101,6.756694896,1.051041428,5.255207141,8.558480201,1.051041428,-3.253223468,2.452429999,-2.052033265,1.551537346,6.356298161,NORMAL
-13.56343938,18.66849775,13.06294347,13.26314183,5.155107958,2.75272755,7.357289998,0.350347143,6.05600061,8.858777752,1.65163653,-3.353322652,0.650644694,-2.352330816,1.65163653,4.654612039,NORMAL
-14.16403449,7.657587549,9.759670405,11.56145571,4.254215305,3.153124285,7.657587549,-0.55054551,6.456397345,9.05897612,1.65163653,-3.953917754,-0.650644694,-2.452429999,2.152132448,3.153124285,NORMAL
-14.6645304,97.34645609,9.159075303,8.558480201,3.153124285,2.252231632,7.557488365,-3.353322652,6.756694896,9.359273671,1.551537346,-5.755703059,0.050049592,-2.652628367,2.452429999,2.252231632,NORMAL
-15.36522469,156.2047761,6.356298161,7.857785916,2.852826734,0.450446326,7.9578851,-5.055008774,6.956893263,9.659571221,1.851834897,-5.955901427,0.750743877,-3.053025101,2.452429999,1.051041428,NORMAL
-15.66552224,49.59914549,-2.352330816,8.758678569,2.552529183,1.251239796,8.158083467,-3.953917754,7.257190814,9.659571221,1.951934081,-4.854810407,0.450446326,-3.653620203,2.552529183,0.450446326,NORMAL
-15.86572061,-51.60112917,1.551537346,7.857785916,1.851834897,3.053025101,8.25818265,-5.155107958,7.657587549,9.759670405,2.152132448,-5.455405509,0.750743877,-4.154116121,3.053025101,1.351338979,NORMAL
-17.06691081,-47.49706264,4.354314488,6.756694896,0.650644694,1.551537346,8.758678569,-8.458381018,7.9578851,10.26016632,2.552529183,-6.05600061,1.551537346,-4.154116121,3.353322652,0.650644694,NORMAL
-17.96780346,-38.68833448,-25.57534142,7.9578851,0.050049592,0.050049592,9.05897612,-9.05897612,7.857785916,10.26016632,2.75272755,-6.05600061,0.650644694,-4.554512856,3.153124285,-1.251239796,NORMAL
-17.7676051,-32.18188754,-51.70122835,10.05996796,0.050049592,1.351338979,8.858777752,-8.158083467,8.25818265,9.959868772,2.75272755,-7.757686732,-1.451438163,-5.455405509,3.353322652,-1.251239796,NORMAL
-17.96780346,-4.854810407,-38.68833448,10.26016632,0.050049592,2.75272755,9.159075303,-8.758678569,8.558480201,10.05996796,3.353322652,-8.358281834,-4.254215305,-6.05600061,3.453421836,-0.650644694,NORMAL
-18.66849775,-6.356298161,-26.47623407,8.458381018,-0.55054551,1.251239796,9.459372854,-9.559472038,8.758678569,10.56046387,3.453421836,-7.557488365,-6.956893263,-6.05600061,3.653620203,-2.352330816,NORMAL
-18.86869612,-15.56542306,-32.48218509,7.056992447,-0.650644694,-0.050049592,9.959868772,-10.26016632,9.05897612,10.26016632,3.653620203,-8.458381018,-8.458381018,-7.15709163,3.753719387,-4.454413672,NORMAL
-19.26909285,4.054016938,-33.98367285,7.657587549,-1.251239796,0.050049592,10.05996796,-10.76066224,9.359273671,10.05996796,4.054016938,-10.16006714,-8.358281834,-8.458381018,4.254215305,-4.554512856,NORMAL
-19.5693904,13.06294347,-37.18684672,7.657587549,-2.352330816,0.450446326,9.959868772,-11.36125734,9.159075303,10.26016632,4.054016938,-9.959868772,-8.758678569,-8.458381018,4.254215305,-3.953917754,NORMAL
-18.56839857,7.857785916,-42.39200427,6.656595712,-2.652628367,0.450446326,9.659571221,-12.36224918,9.05897612,10.05996796,4.054016938,-9.859769589,-9.959868772,-8.458381018,4.054016938,-3.653620203,NORMAL
-17.96780346,12.66254673,-36.0857557,6.356298161,-2.952925917,0.450446326,9.759670405,-12.8627451,9.159075303,9.959868772,4.654612039,-9.959868772,-9.359273671,-9.259174487,4.054016938,-3.353322652,NORMAL
-18.26810101,11.76165408,-30.38010224,6.756694896,-3.85381857,1.051041428,9.759670405,-12.8627451,9.359273671,10.26016632,5.255207141,-9.659571221,-7.557488365,-9.659571221,4.254215305,-3.253223468,NORMAL
-18.06790265,7.657587549,-33.58327611,6.956893263,-4.854810407,1.351338979,9.759670405,-13.26314183,9.659571221,10.26016632,5.755703059,-10.16006714,-7.757686732,-9.859769589,4.654612039,-3.353322652,NORMAL
-17.66750591,8.858777752,-34.2839704,6.456397345,-5.655603876,0.650644694,10.05996796,-13.76363775,9.759670405,10.05996796,6.156099794,-11.46135653,-9.259174487,-10.46036469,5.155107958,-4.254215305,NORMAL
-16.76661326,0.750743877,-28.47821775,5.455405509,-6.05600061,-0.250247959,10.36026551,-13.86373693,10.05996796,10.05996796,6.156099794,-11.66155489,-9.659571221,-10.86076143,5.455405509,-5.355306325,NORMAL
-15.66552224,3.053025101,-20.1699855,4.854810407,-6.256198978,-0.850843061,9.659571221,-14.6645304,10.05996796,10.05996796,6.456397345,-10.76066224,-9.559472038,-10.86076143,5.455405509,-5.755703059,NORMAL
-14.6645304,20.1699855,-21.07087816,4.95490959,-6.956893263,-0.950942245,9.05897612,-14.76462959,10.26016632,10.56046387,7.056992447,-10.16006714,-9.659571221,-11.06095979,5.755703059,-5.355306325,NORMAL
-13.26314183,13.66353857,-29.3791104,4.554512856,-8.358281834,-0.650644694,8.758678569,-13.76363775,10.36026551,10.56046387,7.257190814,-10.56046387,-9.959868772,-11.66155489,6.156099794,-5.955901427,NORMAL
-11.96185245,-5.455405509,-23.07286183,3.953917754,-9.559472038,-0.350347143,8.458381018,-12.8627451,10.86076143,9.959868772,7.857785916,-11.36125734,-9.859769589,-12.36224918,6.456397345,-6.356298161,NORMAL
-11.16105898,-16.86671244,-12.96284428,3.453421836,-10.16006714,-0.650644694,7.9578851,-12.26215,10.66056306,9.459372854,8.158083467,-11.06095979,-10.16006714,-11.66155489,6.656595712,-5.755703059,NORMAL
-9.859769589,-31.48119326,-23.77355612,3.053025101,-10.26016632,-1.551537346,7.857785916,-10.86076143,10.56046387,9.659571221,7.857785916,-10.16006714,-12.36224918,-11.06095979,6.756694896,-5.355306325,NORMAL
-8.158083467,-24.27405203,-37.58724346,2.452429999,-10.46036469,-2.052033265,7.257190814,-10.26016632,10.66056306,9.459372854,7.657587549,-9.259174487,-14.76462959,-11.66155489,7.056992447,-5.155107958,NORMAL
-6.656595712,-1.751735714,-38.98863203,0.350347143,-11.46135653,-1.151140612,6.05600061,-10.86076143,10.66056306,8.758678569,8.558480201,-8.458381018,-15.06492714,-11.66155489,7.557488365,-4.554512856,NORMAL
-4.854810407,-21.07087816,-36.98664836,-3.253223468,-12.56244755,-1.551537346,5.555504692,-10.16006714,10.56046387,8.158083467,9.159075303,-8.158083467,-15.06492714,-10.76066224,7.9578851,-4.154116121,NORMAL
-3.253223468,-34.58426795,-28.27801938,-4.454413672,-12.8627451,-2.952925917,5.755703059,-8.057984283,10.66056306,7.9578851,9.159075303,-8.057984283,-16.16601816,-11.66155489,8.458381018,-4.454413672,NORMAL
-2.452429999,22.07186999,-14.36423285,-2.952925917,-13.56343938,-2.352330816,4.854810407,-8.057984283,10.56046387,7.857785916,9.159075303,-7.257190814,-16.56641489,-11.46135653,8.558480201,-4.154116121,NORMAL
-1.251239796,65.21461814,-12.66254673,-3.053025101,-14.6645304,-0.55054551,3.353322652,-7.857785916,9.959868772,7.857785916,9.05897612,-6.556496529,-17.66750591,-9.359273671,8.458381018,-3.353322652,NORMAL
0.650644694,23.77355612,-16.56641489,-5.155107958,-14.46433204,-0.950942245,2.252231632,-4.454413672,9.659571221,7.056992447,8.858777752,-6.356298161,-19.26909285,-9.259174487,8.25818265,-3.253223468,NORMAL
1.951934081,-45.39497978,-8.458381018,-7.15709163,-14.6645304,-2.152132448,1.351338979,-2.652628367,9.659571221,5.855802243,9.05897612,-6.856794079,-20.47028305,-10.16006714,8.558480201,-2.952925917,NORMAL
2.252231632,-75.42473487,-0.050049592,-8.758678569,-15.66552224,-1.551537346,0.650644694,-4.754711223,9.659571221,5.755703059,9.459372854,-7.257190814,-21.87167163,-9.859769589,9.359273671,-2.052033265,NORMAL
2.552529183,-49.49904631,-8.458381018,-9.259174487,-16.26611734,-0.950942245,0.450446326,-5.055008774,9.359273671,6.356298161,9.459372854,-5.355306325,-22.47226673,-8.958876936,9.659571221,-1.451438163,NORMAL
3.053025101,4.354314488,-19.46929122,-8.958876936,-16.26611734,-1.551537346,-0.250247959,-2.452429999,8.858777752,6.05600061,9.05897612,-2.75272755,-20.67048142,-7.857785916,9.459372854,-1.551537346,NORMAL
3.453421836,38.58823529,-16.86671244,-9.859769589,-16.56641489,-2.452429999,-1.251239796,-1.451438163,8.558480201,5.755703059,8.758678569,-2.652628367,-19.5693904,-6.956893263,9.659571221,-1.751735714,NORMAL
4.254215305,39.48912795,-11.16105898,-11.06095979,-17.06691081,-2.952925917,-1.851834897,-2.152132448,8.558480201,5.755703059,9.159075303,-3.353322652,-21.37117571,-6.956893263,9.959868772,-1.551537346,NORMAL
5.155107958,30.78049897,-6.856794079,-11.36125734,-17.36720836,-3.053025101,-2.352330816,-2.152132448,7.9578851,4.95490959,9.05897612,-3.253223468,-21.07087816,-6.256198978,9.959868772,-1.551537346,NORMAL
5.855802243,22.67246509,-0.050049592,-11.66155489,-17.66750591,-3.653620203,-2.952925917,-1.151140612,7.257190814,3.953917754,8.25818265,-3.553521019,-16.86671244,-5.655603876,9.659571221,-1.551537346,NORMAL
6.356298161,13.56343938,-2.452429999,-11.96185245,-17.96780346,-3.953917754,-3.253223468,-0.250247959,6.756694896,3.653620203,7.857785916,-2.452429999,-15.86572061,-5.455405509,9.459372854,-0.950942245,NORMAL
7.056992447,13.56343938,-8.958876936,-12.26215,-17.96780346,-3.053025101,-3.85381857,-0.250247959,6.156099794,3.653620203,7.557488365,0.050049592,-18.3682002,-3.353322652,9.659571221,-0.250247959,NORMAL
8.158083467,26.47623407,-2.652628367,-12.96284428,-17.66750591,-2.152132448,-4.754711223,0.150148775,5.555504692,3.153124285,6.956893263,0.650644694,-17.66750591,-1.251239796,9.459372854,-0.350347143,NORMAL
8.758678569,33.48317693,6.956893263,-13.56343938,-17.96780346,-2.452429999,-5.655603876,0.450446326,5.155107958,2.852826734,6.456397345,0.050049592,-14.46433204,-1.251239796,9.359273671,-0.250247959,NORMAL
9.05897612,22.37216754,9.159075303,-13.86373693,-18.26810101,-2.652628367,-6.556496529,0.150148775,4.354314488,1.951934081,5.455405509,0.050049592,-13.86373693,-0.55054551,9.05897612,0.050049592,NORMAL
9.659571221,10.05996796,10.36026551,-14.46433204,-17.66750591,-2.652628367,-7.15709163,1.351338979,3.453421836,0.750743877,4.354314488,0.050049592,-11.06095979,0.350347143,8.458381018,0.350347143,NORMAL
10.26016632,1.351338979,12.06195163,-14.6645304,-17.06691081,-3.253223468,-7.757686732,2.552529183,2.852826734,0.050049592,3.453421836,0.650644694,0.350347143,0.450446326,7.557488365,0.650644694,NORMAL
10.05996796,-19.5693904,11.56145571,-14.16403449,-17.16700999,-3.553521019,-8.458381018,0.950942245,2.152132448,-0.250247959,2.552529183,1.951934081,9.959868772,3.453421836,6.956893263,0.950942245,NORMAL
9.159075303,-37.48714427,6.05600061,-13.26314183,-16.56641489,-2.952925917,-9.05897612,0.050049592,1.65163653,-0.950942245,1.951934081,2.75272755,6.156099794,7.357289998,6.656595712,1.551537346,NORMAL
8.758678569,-27.27702754,-3.653620203,-12.66254673,-15.86572061,-2.652628367,-9.05897612,2.152132448,1.251239796,-2.152132448,1.351338979,3.653620203,-0.350347143,7.357289998,6.156099794,2.152132448,NORMAL
8.458381018,-7.857785916,-2.152132448,-12.36224918,-15.56542306,-3.053025101,-9.659571221,4.254215305,0.450446326,-3.553521019,0.350347143,4.054016938,1.551537346,6.456397345,5.555504692,1.551537346,NORMAL
7.357289998,-2.052033265,6.05600061,-12.36224918,-14.76462959,-2.952925917,-9.959868772,2.852826734,-0.250247959,-3.953917754,-0.350347143,3.153124285,3.753719387,5.555504692,4.654612039,1.051041428,NORMAL
6.956893263,-0.950942245,4.854810407,-12.36224918,-13.76363775,-1.551537346,-9.659571221,1.051041428,-0.55054551,-3.953917754,-0.950942245,4.354314488,0.050049592,3.953917754,3.953917754,2.75272755,NORMAL
7.857785916,1.051041428,4.854810407,-11.66155489,-12.96284428,-0.950942245,-10.16006714,3.153124285,-0.950942245,-4.554512856,-2.452429999,6.156099794,0.050049592,3.953917754,3.653620203,3.953917754,NORMAL
8.25818265,0.650644694,10.56046387,-10.76066224,-12.06195163,-1.551537346,-11.36125734,5.755703059,-2.152132448,-4.854810407,-4.154116121,4.854810407,3.953917754,4.654612039,2.852826734,2.75272755,NORMAL
7.657587549,3.353322652,11.26115816,-11.16105898,-11.16105898,-0.850843061,-12.06195163,2.552529183,-3.053025101,-4.454413672,-5.155107958,4.854810407,1.351338979,5.455405509,1.65163653,3.153124285,NORMAL
7.657587549,10.05996796,15.16502632,-10.86076143,-10.46036469,0.450446326,-12.66254673,0.050049592,-3.85381857,-3.85381857,-6.656595712,7.9578851,-2.352330816,8.25818265,0.650644694,6.356298161,NORMAL
8.158083467,10.26016632,18.06790265,-8.057984283,-9.259174487,0.050049592,-13.26314183,3.653620203,-4.554512856,-3.953917754,-7.757686732,7.9578851,-0.250247959,9.159075303,-0.250247959,6.956893263,NORMAL
7.857785916,4.654612039,4.554512856,-6.05600061,-7.557488365,-0.250247959,-13.56343938,6.05600061,-5.655603876,-5.455405509,-7.857785916,7.056992447,1.551537346,6.456397345,-1.551537346,4.554512856,NORMAL
7.857785916,4.254215305,-8.358281834,-5.755703059,-6.256198978,1.051041428,-13.86373693,4.254215305,-6.256198978,-6.356298161,-8.458381018,9.659571221,1.251239796,6.756694896,-2.352330816,4.654612039,NORMAL
7.857785916,7.257190814,-6.356298161,-5.055008774,-4.854810407,1.551537346,-13.86373693,4.254215305,-6.556496529,-5.955901427,-9.359273671,11.46135653,0.750743877,9.159075303,-2.652628367,7.857785916,NORMAL
7.557488365,-1.151140612,-0.950942245,-4.454413672,-3.85381857,1.051041428,-14.0639353,3.953917754,-6.956893263,-5.755703059,-9.959868772,10.26016632,-1.551537346,8.858777752,-3.353322652,9.05897612,NORMAL
7.657587549,-20.97077897,4.654612039,-3.953917754,-2.452429999,2.152132448,-14.36423285,2.152132448,-7.857785916,-7.457389181,-10.26016632,10.86076143,-3.953917754,8.558480201,-4.554512856,7.657587549,NORMAL
7.857785916,-24.97474632,12.36224918,-2.452429999,-0.350347143,2.75272755,-14.46433204,3.153124285,-8.358281834,-8.758678569,-10.46036469,12.36224918,-4.254215305,9.959868772,-5.355306325,8.158083467,NORMAL
7.857785916,-13.16304265,20.1699855,-1.551537346,0.750743877,1.551537346,-14.36423285,4.854810407,-8.758678569,-8.158083467,-10.76066224,12.46234836,-7.857785916,10.66056306,-5.955901427,9.959868772,NORMAL
7.857785916,-10.16006714,27.47722591,-1.751735714,1.65163653,0.650644694,-14.36423285,3.653620203,-9.259174487,-7.557488365,-10.56046387,13.36324102,-14.46433204,11.76165408,-6.556496529,10.05996796,NORMAL
7.657587549,-10.26016632,27.17692836,-1.151140612,2.452429999,1.351338979,-14.16403449,3.053025101,-9.859769589,-8.358281834,-10.46036469,14.26413367,-16.86671244,12.96284428,-7.15709163,10.36026551,NORMAL
7.357289998,-14.0639353,25.27504387,-0.050049592,2.75272755,1.851834897,-14.16403449,4.054016938,-10.26016632,-9.359273671,-11.16105898,13.06294347,-14.0639353,12.46234836,-7.857785916,10.86076143,NORMAL
6.956893263,-33.88357366,33.38307774,0.350347143,3.153124285,1.051041428,-14.46433204,4.654612039,-10.86076143,-9.959868772,-12.66254673,13.26314183,-11.06095979,12.66254673,-8.658579385,10.05996796,NORMAL
5.555504692,-40.28992142,42.69230182,0.350347143,4.554512856,1.051041428,-14.36423285,3.353322652,-11.46135653,-10.56046387,-13.56343938,16.26611734,-10.46036469,14.56443122,-9.259174487,10.05996796,NORMAL
4.654612039,-21.67147326,46.59616999,0.050049592,6.05600061,2.75272755,-13.4633402,1.051041428,-12.06195163,-11.46135653,-13.86373693,17.26710918,-9.659571221,15.66552224,-9.859769589,11.86175326,NORMAL
4.854810407,-15.66552224,46.69626917,1.251239796,6.456397345,3.053025101,-12.8627451,2.452429999,-12.36224918,-12.26215,-14.46433204,14.86472877,-6.256198978,14.56443122,-10.26016632,12.06195163,NORMAL
4.654612039,-17.06691081,38.48813611,2.552529183,6.456397345,1.851834897,-12.8627451,4.654612039,-12.96284428,-12.8627451,-14.96482795,14.16403449,-4.854810407,13.66353857,-10.86076143,9.959868772,NORMAL
4.254215305,-3.553521019,29.27901122,1.351338979,7.056992447,2.152132448,-12.96284428,2.252231632,-14.0639353,-14.0639353,-15.26512551,16.36621653,-5.755703059,14.76462959,-11.76165408,9.959868772,NORMAL
4.354314488,4.854810407,28.67841611,0.650644694,7.857785916,2.852826734,-12.96284428,0.050049592,-14.46433204,-14.76462959,-15.56542306,17.7676051,-5.355306325,16.56641489,-12.36224918,12.76264591,NORMAL
4.254215305,7.056992447,31.38109407,2.452429999,7.9578851,2.75272755,-12.8627451,1.851834897,-14.46433204,-14.46433204,-15.36522469,17.56740673,-6.256198978,17.16700999,-12.36224918,14.26413367,NORMAL
3.653620203,14.56443122,36.18585489,3.453421836,8.158083467,2.852826734,-11.96185245,2.152132448,-14.96482795,-14.76462959,-14.46433204,17.86770428,-7.257190814,16.96681163,-12.66254673,12.16205081,NORMAL
3.053025101,18.46829938,40.69031815,2.75272755,8.558480201,2.852826734,-10.86076143,1.051041428,-15.56542306,-15.86572061,-13.76363775,18.66849775,-3.353322652,16.56641489,-13.16304265,11.86175326,NORMAL
1.851834897,29.87960632,44.29388876,2.252231632,8.858777752,1.951934081,-10.46036469,1.65163653,-15.66552224,-16.26611734,-13.26314183,18.3682002,-1.551537346,15.76562142,-13.4633402,14.86472877,NORMAL
0.050049592,39.1888304,47.19676509,2.852826734,8.858777752,2.452429999,-10.26016632,0.750743877,-15.86572061,-16.26611734,-12.96284428,17.56740673,-5.055008774,15.76562142,-13.56343938,15.06492714,NORMAL
-1.551537346,15.76562142,35.28496223,3.453421836,9.05897612,3.153124285,-9.959868772,-0.950942245,-16.26611734,-16.76661326,-12.66254673,17.26710918,-6.556496529,16.26611734,-14.0639353,12.36224918,NORMAL
-2.652628367,7.857785916,18.66849775,3.753719387,9.359273671,3.653620203,-9.659571221,-0.55054551,-16.76661326,-17.66750591,-12.26215,17.26710918,-5.955901427,15.66552224,-14.16403449,11.46135653,NORMAL
-3.653620203,39.08873121,19.86968795,4.054016938,9.159075303,2.552529183,-9.259174487,0.050049592,-16.76661326,-18.26810101,-11.46135653,17.16700999,-6.05600061,15.36522469,-14.16403449,10.86076143,NORMAL
-4.554512856,13.26314183,14.26413367,3.953917754,9.459372854,2.252231632,-8.358281834,-1.551537346,-16.86671244,-18.06790265,-10.86076143,17.46730755,-5.655603876,15.96581979,-14.6645304,10.86076143,NORMAL
-5.055008774,-60.91035325,-16.56641489,3.453421836,9.959868772,4.354314488,-7.857785916,-3.553521019,-17.36720836,-18.06790265,-10.76066224,17.86770428,-4.854810407,15.96581979,-14.96482795,13.86373693,NORMAL
-5.455405509,-50.39993896,-51.4009308,3.953917754,9.459372854,4.854810407,-8.057984283,-2.75272755,-17.36720836,-18.9687953,-10.56046387,17.16700999,-3.653620203,13.96383612,-14.6645304,14.26413367,NORMAL
-5.955901427,17.46730755,-85.83504997,5.255207141,9.05897612,3.353322652,-7.557488365,-1.551537346,-16.76661326,-19.46929122,-9.359273671,15.16502632,-2.152132448,12.06195163,-14.16403449,10.05996796,NORMAL
-6.356298161,32.48218509,-99.1482414,4.854810407,9.459372854,3.053025101,-6.356298161,-2.75272755,-16.26611734,-19.46929122,-8.658579385,13.86373693,-4.154116121,11.56145571,-13.86373693,7.857785916,NORMAL
-6.856794079,22.57236591,-64.91432059,4.354314488,9.759670405,2.252231632,-5.455405509,-3.553521019,-16.16601816,-19.46929122,-8.658579385,13.06294347,-5.455405509,11.56145571,-13.76363775,7.857785916,NORMAL
-7.457389181,32.18188754,-26.07583734,5.255207141,9.359273671,1.951934081,-5.455405509,-3.053025101,-15.66552224,-18.56839857,-8.758678569,12.66254673,-3.953917754,11.16105898,-13.86373693,6.356298161,NORMAL
-8.158083467,28.27801938,-6.856794079,5.255207141,9.159075303,3.053025101,-4.854810407,-4.154116121,-15.26512551,-17.7676051,-8.458381018,11.76165408,-3.653620203,10.36026551,-13.76363775,5.155107958,NORMAL
-8.458381018,19.06889448,18.16800183,5.455405509,9.459372854,4.054016938,-3.353322652,-4.554512856,-14.76462959,-18.3682002,-7.457389181,9.359273671,-2.152132448,9.05897612,-12.8627451,4.854810407,NORMAL
-8.358281834,26.47623407,27.37712673,6.656595712,9.359273671,3.753719387,-2.452429999,-3.85381857,-14.0639353,-17.96780346,-6.556496529,7.357289998,6.156099794,8.558480201,-12.36224918,4.254215305,NORMAL
-8.057984283,24.97474632,18.3682002,5.255207141,9.05897612,3.353322652,-2.152132448,-6.05600061,-13.4633402,-15.26512551,-6.656595712,7.657587549,21.17097734,10.26016632,-12.06195163,4.854810407,NORMAL
-7.457389181,17.16700999,34.2839704,3.753719387,8.858777752,5.455405509,-1.251239796,-8.358281834,-12.8627451,-13.26314183,-6.956893263,7.857785916,35.18486305,11.16105898,-11.66155489,6.156099794,NORMAL
-7.15709163,18.9687953,52.70222019,5.555504692,8.458381018,7.357289998,0.350347143,-7.15709163,-12.06195163,-12.96284428,-6.356298161,5.855802243,37.88754101,9.459372854,-11.06095979,5.755703059,NORMAL
-6.856794079,17.16700999,42.99259937,6.956893263,7.857785916,6.156099794,1.551537346,-6.256198978,-11.16105898,-11.66155489,-5.655603876,4.354314488,34.68436713,7.9578851,-10.46036469,2.852826734,NORMAL
-5.755703059,15.06492714,25.97573816,5.555504692,7.657587549,7.357289998,2.152132448,-7.457389181,-10.46036469,-9.659571221,-5.155107958,4.254215305,39.08873121,8.25818265,-9.959868772,1.551537346,NORMAL
-4.454413672,19.36919203,-1.151140612,3.753719387,7.557488365,10.86076143,2.852826734,-8.158083467,-9.859769589,-8.057984283,-4.754711223,3.753719387,45.09468223,8.758678569,-9.559472038,2.852826734,NORMAL
-3.85381857,17.16700999,-24.27405203,4.054016938,7.257190814,10.26016632,3.753719387,-8.057984283,-8.958876936,-6.256198978,-4.454413672,2.152132448,47.59716182,8.25818265,-8.958876936,1.251239796,NORMAL
-3.353322652,12.96284428,-6.05600061,5.255207141,6.956893263,9.759670405,4.054016938,-8.158083467,-7.857785916,-4.154116121,-4.454413672,0.350347143,53.20271611,7.557488365,-8.458381018,-4.754711223,NORMAL
-2.152132448,13.26314183,20.1699855,3.653620203,6.156099794,9.759670405,4.654612039,-9.559472038,-7.257190814,-2.452429999,-3.85381857,-1.551537346,48.79835203,6.05600061,-8.658579385,-5.955901427,NORMAL
-0.650644694,12.16205081,22.87266346,0.750743877,5.155107958,10.66056306,5.755703059,-10.56046387,-6.356298161,-0.950942245,-3.053025101,-2.352330816,27.47722591,4.554512856,-8.358281834,-1.151140612,NORMAL
0.150148775,12.06195163,26.57633326,2.552529183,4.95490959,14.46433204,6.356298161,-9.559472038,-5.455405509,1.051041428,-2.452429999,-1.251239796,13.36324102,4.354314488,-7.757686732,-0.350347143,NORMAL
1.251239796,12.46234836,30.38010224,4.554512856,4.854810407,13.26314183,6.656595712,-9.259174487,-4.554512856,2.75272755,-1.751735714,-1.551537346,11.46135653,3.753719387,-7.257190814,-3.053025101,NORMAL
2.452429999,9.359273671,27.07682918,1.851834897,3.953917754,10.05996796,7.557488365,-9.359273671,-3.053025101,1.851834897,-0.55054551,-4.454413672,7.657587549,0.350347143,-6.956893263,-4.454413672,NORMAL
3.353322652,6.456397345,28.37811856,0.050049592,3.153124285,10.66056306,8.158083467,-7.757686732,-1.251239796,1.351338979,0.650644694,-6.356298161,8.558480201,-1.551537346,-6.05600061,-6.356298161,NORMAL
4.654612039,7.257190814,22.37216754,0.450446326,2.252231632,8.558480201,7.857785916,-7.557488365,-0.650644694,3.753719387,1.851834897,-6.956893263,12.36224918,0.050049592,-5.455405509,-8.158083467,NORMAL
6.156099794,8.558480201,8.558480201,-0.350347143,1.251239796,8.25818265,7.657587549,-9.859769589,-0.050049592,4.654612039,2.852826734,-8.057984283,5.755703059,0.050049592,-5.155107958,-7.557488365,NORMAL
6.656595712,9.459372854,-1.151140612,-0.850843061,0.150148775,10.05996796,8.758678569,-9.659571221,1.351338979,2.75272755,4.054016938,-8.158083467,-1.451438163,-3.653620203,-4.154116121,-9.359273671,NORMAL
7.257190814,6.956893263,-22.77256428,-0.250247959,-0.650644694,3.753719387,9.759670405,-8.158083467,3.153124285,2.552529183,5.155107958,-7.857785916,-1.851834897,-5.955901427,-3.053025101,-14.16403449,NORMAL
8.558480201,3.953917754,-48.29785611,-1.751735714,-1.751735714,0.450446326,10.05996796,-9.259174487,3.953917754,4.654612039,6.156099794,-9.859769589,-4.554512856,-6.556496529,-2.75272755,-15.86572061,NORMAL
9.159075303,4.054016938,-54.30380713,-3.053025101,-2.75272755,5.555504692,10.26016632,-9.559472038,4.854810407,6.156099794,7.257190814,-10.56046387,-8.758678569,-7.15709163,-2.052033265,-14.0639353,NORMAL
9.959868772,1.65163653,-54.90440223,-2.952925917,-3.653620203,3.653620203,10.56046387,-7.557488365,5.555504692,7.857785916,7.857785916,-7.857785916,-11.16105898,-6.356298161,-0.850843061,-13.4633402,NORMAL
11.56145571,-2.152132448,-57.70717937,-3.85381857,-4.754711223,1.251239796,10.36026551,-6.656595712,6.05600061,9.159075303,7.9578851,-6.956893263,-14.46433204,-5.755703059,0.050049592,-14.46433204,NORMAL
12.06195163,-1.251239796,-51.60112917,-4.554512856,-5.655603876,3.953917754,10.66056306,-6.956893263,6.756694896,8.758678569,8.758678569,-9.659571221,-14.6645304,-7.15709163,0.750743877,-15.26512551,NORMAL
11.76165408,1.65163653,-45.09468223,-4.754711223,-6.256198978,0.750743877,11.26115816,-6.05600061,7.657587549,8.758678569,9.759670405,-10.86076143,-12.96284428,-7.757686732,1.851834897,-15.86572061,NORMAL
12.76264591,2.452429999,-42.39200427,-5.455405509,-6.956893263,-0.55054551,11.46135653,-5.355306325,8.558480201,9.459372854,10.36026551,-10.16006714,-15.06492714,-7.257190814,3.153124285,-17.06691081,NORMAL
13.56343938,0.350347143,-36.6863508,-6.256198978,-7.757686732,1.65163653,11.56145571,-5.155107958,9.359273671,9.359273671,10.86076143,-10.26016632,-15.36522469,-7.257190814,4.654612039,-17.96780346,NORMAL
12.96284428,-2.052033265,-32.08178836,-6.856794079,-7.857785916,-3.353322652,11.56145571,-2.952925917,9.659571221,9.359273671,11.46135653,-10.16006714,-14.16403449,-6.256198978,5.555504692,-18.66849775,NORMAL
12.76264591,-2.952925917,-27.57732509,-8.158083467,-7.857785916,-7.15709163,11.46135653,0.150148775,9.759670405,9.459372854,11.76165408,-9.659571221,-17.46730755,-5.155107958,6.05600061,-20.47028305,NORMAL
12.76264591,-4.154116121,-20.67048142,-8.758678569,-8.358281834,-6.256198978,11.26115816,-0.050049592,10.36026551,8.758678569,12.06195163,-11.36125734,-19.16899367,-6.256198978,6.656595712,-21.07087816,NORMAL
12.76264591,-2.452429999,-17.46730755,-8.358281834,-8.958876936,-6.956893263,11.16105898,-2.152132448,10.96086061,8.558480201,12.36224918,-12.26215,-16.86671244,-6.956893263,7.657587549,-19.16899367,NORMAL
13.06294347,0.350347143,-15.36522469,-8.658579385,-8.758678569,-1.451438163,10.86076143,-1.551537346,11.46135653,9.459372854,12.36224918,-10.56046387,-17.06691081,-5.655603876,8.458381018,-17.66750591,NORMAL
13.26314183,-7.257190814,-11.76165408,-9.259174487,-8.458381018,-2.052033265,10.56046387,0.050049592,11.46135653,9.359273671,11.86175326,-9.359273671,-17.06691081,-4.554512856,8.758678569,-18.06790265,NORMAL
12.96284428,-13.4633402,-10.76066224,-9.559472038,-8.658579385,-9.05897612,10.05996796,0.750743877,11.16105898,8.25818265,11.86175326,-9.659571221,-15.06492714,-4.554512856,9.359273671,-18.06790265,NORMAL
12.36224918,-5.355306325,-9.359273671,-9.659571221,-8.658579385,-7.15709163,9.359273671,2.152132448,11.16105898,7.9578851,12.16205081,-9.859769589,-14.16403449,-3.953917754,10.05996796,-17.06691081,NORMAL
12.16205081,-2.652628367,-5.755703059,-10.46036469,-8.057984283,-7.557488365,9.159075303,2.852826734,11.86175326,8.25818265,12.36224918,-9.859769589,-12.06195163,-3.253223468,10.66056306,-16.56641489,NORMAL
12.06195163,-6.256198978,-4.154116121,-11.96185245,-7.557488365,-10.26016632,8.758678569,2.852826734,12.46234836,8.558480201,11.86175326,-9.659571221,-10.56046387,-2.452429999,11.46135653,-16.26611734,NORMAL
11.16105898,-10.16006714,-4.754711223,-12.26215,-6.956893263,-7.457389181,7.357289998,4.254215305,12.16205081,8.458381018,11.26115816,-10.16006714,-11.16105898,-1.551537346,11.86175326,-16.16601816,NORMAL
10.56046387,-27.27702754,-5.055008774,-12.26215,-6.256198978,1.551537346,6.156099794,6.456397345,11.76165408,8.158083467,10.66056306,-10.46036469,-5.655603876,-0.850843061,11.56145571,-16.86671244,NORMAL
11.26115816,-32.48218509,-3.553521019,-12.96284428,-5.655603876,31.88158999,5.755703059,7.557488365,11.46135653,7.9578851,10.05996796,-9.05897612,1.351338979,0.050049592,11.26115816,-17.36720836,NORMAL
11.56145571,-10.26016632,-1.751735714,-12.26215,-4.854810407,53.20271611,4.554512856,8.858777752,11.26115816,7.357289998,9.159075303,-8.057984283,0.650644694,1.951934081,11.16105898,-15.66552224,NORMAL
10.96086061,-2.452429999,0.050049592,-10.76066224,-3.953917754,4.854810407,3.353322652,12.06195163,10.96086061,7.657587549,8.25818265,-7.457389181,0.350347143,3.053025101,10.96086061,-12.66254673,NORMAL
10.56046387,-10.26016632,3.753719387,-12.06195163,-2.75272755,-79.92919814,2.75272755,14.16403449,10.86076143,7.9578851,7.557488365,-6.256198978,3.053025101,3.453421836,10.86076143,-10.16006714,NORMAL
10.56046387,-8.057984283,6.456397345,-12.26215,-1.451438163,-132.3811704,1.65163653,12.76264591,10.96086061,7.257190814,6.356298161,-7.257190814,1.351338979,3.753719387,11.16105898,-9.359273671,NORMAL
9.959868772,-14.96482795,5.555504692,-9.859769589,-0.55054551,-124.3732357,0.450446326,12.06195163,10.86076143,6.656595712,5.255207141,-8.658579385,4.654612039,1.851834897,11.26115816,-9.05897612,NORMAL
9.159075303,-23.17296101,8.858777752,-10.46036469,0.050049592,-57.40688182,-0.050049592,13.96383612,10.26016632,7.357289998,4.654612039,-5.755703059,15.36522469,-1.851834897,10.96086061,-7.257190814,NORMAL
7.9578851,-10.86076143,14.76462959,-12.96284428,0.950942245,-39.38902876,-0.850843061,14.26413367,9.759670405,7.557488365,3.953917754,-4.754711223,16.36621653,-5.955901427,10.86076143,-4.554512856,NORMAL
6.756694896,-6.656595712,14.56443122,-12.66254673,2.152132448,-128.1770047,-1.751735714,13.26314183,10.26016632,6.756694896,2.75272755,-8.758678569,10.26016632,-9.959868772,11.26115816,-3.553521019,NORMAL
6.05600061,-13.4633402,15.36522469,-12.26215,2.852826734,-187.3356222,-2.452429999,13.66353857,10.05996796,6.156099794,1.951934081,-9.559472038,9.159075303,-12.26215,11.26115816,-5.055008774,NORMAL
5.455405509,-11.66155489,20.1699855,-12.96284428,3.653620203,-176.9253071,-3.053025101,13.36324102,8.858777752,4.854810407,1.351338979,-5.355306325,7.557488365,-11.66155489,10.86076143,-6.05600061,NORMAL
5.755703059,-15.96581979,19.96978714,-11.66155489,4.854810407,-155.0035859,-3.85381857,13.26314183,7.657587549,3.153124285,0.050049592,-3.253223468,4.554512856,-11.16105898,10.26016632,-5.355306325,NORMAL
6.456397345,-20.37018387,15.46532387,-10.26016632,5.455405509,-94.8439765,-4.754711223,14.56443122,6.956893263,2.75272755,-1.251239796,-2.452429999,5.455405509,-11.06095979,9.359273671,-4.154116121,NORMAL
5.455405509,-11.76165408,10.66056306,-11.06095979,5.755703059,-69.61898222,-5.455405509,13.36324102,6.05600061,2.452429999,-1.851834897,-0.950942245,5.455405509,-9.959868772,8.458381018,-3.653620203,NORMAL
4.254215305,-11.06095979,7.257190814,-10.46036469,6.356298161,-130.2790875,-5.755703059,12.46234836,5.455405509,1.851834897,-2.352330816,-0.350347143,2.452429999,-10.56046387,7.857785916,-3.253223468,NORMAL
3.953917754,-16.86671244,5.755703059,-9.05897612,6.756694896,-137.1859312,-5.955901427,15.66552224,4.654612039,1.351338979,-2.952925917,0.050049592,0.650644694,-11.06095979,7.056992447,-1.751735714,NORMAL
3.353322652,-16.56641489,4.054016938,-7.457389181,6.956893263,-76.62592508,-6.356298161,15.66552224,3.453421836,1.251239796,-3.353322652,1.051041428,-0.050049592,-9.259174487,6.05600061,0.050049592,NORMAL
3.053025101,-19.86968795,16.56641489,-3.253223468,7.357289998,-19.76958877,-6.656595712,12.66254673,1.851834897,0.650644694,-3.953917754,1.851834897,0.350347143,-8.358281834,4.654612039,1.251239796,NORMAL
3.953917754,-20.37018387,53.20271611,1.351338979,7.9578851,63.41283284,-6.956893263,13.26314183,0.050049592,-0.350347143,-4.554512856,1.65163653,2.852826734,-9.05897612,3.353322652,1.251239796,NORMAL
4.254215305,-16.86671244,75.52483406,3.053025101,8.458381018,124.1730373,-7.257190814,13.36324102,-1.251239796,-0.950942245,-5.055008774,1.051041428,3.153124285,-9.259174487,1.951934081,0.150148775,NORMAL
3.753719387,-19.16899367,60.50995651,2.75272755,9.159075303,143.9926757,-7.457389181,11.46135653,-2.052033265,-1.451438163,-5.355306325,0.350347143,3.353322652,-8.658579385,0.950942245,0.450446326,NORMAL
3.053025101,-14.16403449,53.30281529,2.152132448,9.959868772,151.0997177,-7.15709163,10.26016632,-3.053025101,-2.75272755,-6.05600061,-0.250247959,5.455405509,-7.857785916,0.050049592,2.552529183,NORMAL
1.251239796,-10.16006714,68.81818875,1.051041428,9.959868772,34.98466468,-6.856794079,6.756694896,-3.553521019,-3.253223468,-6.556496529,-1.751735714,6.05600061,-7.857785916,-0.650644694,4.354314488,NORMAL
1.051041428,-18.06790265,68.31769284,0.750743877,9.759670405,-71.52086671,-6.356298161,3.953917754,-3.653620203,-2.652628367,-6.356298161,-1.851834897,5.755703059,-7.557488365,-0.850843061,5.155107958,NORMAL
2.852826734,-14.0639353,55.00450141,1.351338979,10.05996796,70.72007324,-5.755703059,4.854810407,-4.854810407,-3.953917754,-5.655603876,0.450446326,6.756694896,-4.554512856,-1.851834897,5.255207141,NORMAL
1.951934081,-7.757686732,47.79736019,1.851834897,10.26016632,185.1334401,-5.755703059,3.053025101,-6.556496529,-6.356298161,-6.05600061,1.851834897,7.056992447,-2.452429999,-3.553521019,5.255207141,NORMAL
-0.55054551,-6.556496529,36.18585489,3.053025101,10.26016632,67.9172961,-5.955901427,1.65163653,-6.656595712,-5.955901427,-6.556496529,1.251239796,7.257190814,-4.254215305,-4.154116121,5.855802243,NORMAL
-0.650644694,14.86472877,30.17990387,4.654612039,10.56046387,21.07087816,-5.355306325,6.656595712,-6.656595712,-5.155107958,-6.05600061,1.351338979,7.9578851,-4.854810407,-4.154116121,7.857785916,NORMAL
0.350347143,15.36522469,40.69031815,5.755703059,10.66056306,85.33455406,-4.254215305,8.558480201,-7.257190814,-6.556496529,-5.655603876,2.452429999,7.9578851,-3.553521019,-4.554512856,9.05897612,NORMAL
0.050049592,-23.67345693,33.98367285,6.956893263,10.26016632,88.43762875,-3.85381857,6.156099794,-7.857785916,-7.257190814,-5.755703059,3.353322652,8.25818265,-3.053025101,-5.155107958,9.159075303,NORMAL
-0.950942245,-34.58426795,1.351338979,8.158083467,10.36026551,119.5684749,-3.053025101,6.656595712,-8.158083467,-7.15709163,-5.355306325,3.353322652,8.158083467,-1.451438163,-5.655603876,9.759670405,NORMAL
-1.251239796,-28.27801938,-18.56839857,8.558480201,10.96086061,155.604181,-2.452429999,6.756694896,-8.658579385,-7.557488365,-5.055008774,2.152132448,7.056992447,-0.050049592,-6.356298161,10.56046387,NORMAL
-0.350347143,-26.07583734,-17.06691081,9.759670405,10.86076143,99.84893568,-2.052033265,5.755703059,-8.458381018,-7.457389181,-5.355306325,1.351338979,7.857785916,-1.751735714,-6.556496529,10.86076143,NORMAL
-0.950942245,18.06790265,-14.76462959,10.86076143,10.56046387,70.92027161,-1.251239796,5.855802243,-8.158083467,-6.856794079,-4.754711223,1.551537346,9.659571221,-2.452429999,-6.356298161,11.16105898,NORMAL
-3.253223468,32.28198672,-16.26611734,10.26016632,10.56046387,67.41680018,-0.250247959,2.75272755,-8.358281834,-6.856794079,-3.653620203,1.65163653,9.759670405,-1.151140612,-6.856794079,11.56145571,NORMAL
-3.653620203,-40.18982223,-16.26611734,10.26016632,10.86076143,33.6833753,0.150148775,-1.851834897,-8.458381018,-6.656595712,-3.653620203,2.452429999,9.459372854,-0.850843061,-6.856794079,12.06195163,NORMAL
-1.751735714,-66.41580835,-14.46433204,11.56145571,11.16105898,81.73098344,0.750743877,-0.950942245,-8.758678569,-6.556496529,-3.553521019,2.75272755,9.659571221,0.050049592,-6.656595712,12.96284428,NORMAL
-1.251239796,-19.76958877,-11.16105898,12.66254673,11.16105898,156.0045777,1.351338979,0.950942245,-8.758678569,-6.556496529,-2.75272755,1.551537346,9.659571221,0.950942245,-6.956893263,13.86373693,NORMAL
-2.052033265,-8.458381018,-7.457389181,12.66254673,11.16105898,116.0650034,1.851834897,1.351338979,-8.158083467,-5.455405509,-2.452429999,0.650644694,9.959868772,-0.950942245,-7.15709163,14.16403449,NORMAL
-2.75272755,-8.958876936,-6.356298161,12.46234836,11.56145571,65.21461814,2.452429999,4.054016938,-7.557488365,-4.754711223,-2.352330816,0.650644694,9.459372854,-2.152132448,-6.656595712,13.66353857,NORMAL
-4.154116121,8.25818265,-4.854810407,12.96284428,11.46135653,83.53276875,3.053025101,6.356298161,-7.15709163,-4.554512856,-1.751735714,0.450446326,8.858777752,-1.151140612,-6.05600061,13.56343938,NORMAL
-5.055008774,-4.554512856,-2.452429999,13.26314183,10.36026551,71.92126345,3.153124285,5.155107958,-6.556496529,-3.953917754,-1.251239796,0.650644694,9.459372854,-0.55054551,-5.755703059,13.36324102,NORMAL
-4.854810407,-13.56343938,-5.355306325,12.66254673,9.759670405,-20.67048142,3.453421836,4.554512856,-5.755703059,-3.253223468,-0.650644694,0.950942245,10.05996796,0.450446326,-5.155107958,13.36324102,NORMAL
-5.655603876,3.053025101,-9.359273671,12.76264591,9.459372854,-131.2800793,4.054016938,6.356298161,-5.155107958,-2.75272755,-0.350347143,1.251239796,10.05996796,2.152132448,-4.754711223,13.06294347,NORMAL
-6.656595712,0.050049592,-7.15709163,14.16403449,9.05897612,-165.8142977,4.254215305,7.357289998,-4.454413672,-1.551537346,0.050049592,1.551537346,10.86076143,2.252231632,-4.254215305,12.06195163,NORMAL
-7.257190814,-9.659571221,-6.956893263,14.76462959,9.159075303,-133.5823606,4.254215305,6.356298161,-3.553521019,-0.350347143,0.350347143,1.551537346,11.16105898,2.252231632,-3.85381857,11.46135653,NORMAL
-8.158083467,-9.659571221,-13.56343938,14.76462959,9.159075303,-135.984741,4.95490959,5.855802243,-2.652628367,0.150148775,0.650644694,2.152132448,10.36026551,3.053025101,-3.253223468,11.76165408,NORMAL
-8.158083467,-17.66750591,-15.66552224,15.36522469,8.758678569,-145.6943618,5.255207141,6.756694896,-1.751735714,1.251239796,0.450446326,3.753719387,10.05996796,3.153124285,-2.652628367,11.26115816,NORMAL
-8.158083467,-16.76661326,-13.86373693,14.86472877,8.458381018,-59.80926223,5.255207141,6.356298161,-0.850843061,1.951934081,0.350347143,2.252231632,10.56046387,3.353322652,-2.052033265,10.26016632,NORMAL
-9.859769589,-8.057984283,-14.16403449,13.26314183,8.558480201,66.81620508,5.555504692,4.254215305,0.050049592,2.75272755,0.650644694,-0.950942245,11.26115816,3.353322652,-1.551537346,9.759670405,NORMAL
-10.86076143,-8.458381018,-13.76363775,12.46234836,9.359273671,123.1720455,6.05600061,3.053025101,0.750743877,3.953917754,0.750743877,-0.650644694,11.16105898,3.353322652,-1.151140612,9.359273671,NORMAL
-10.46036469,-4.154116121,-13.76363775,11.76165408,9.759670405,123.2721447,6.05600061,2.152132448,1.551537346,4.854810407,0.750743877,0.350347143,9.759670405,3.353322652,-0.55054551,8.158083467,NORMAL
-10.86076143,-1.551537346,-11.76165408,11.16105898,9.05897612,135.2840467,5.855802243,0.750743877,2.252231632,5.855802243,0.950942245,-1.451438163,9.359273671,3.153124285,0.050049592,7.357289998,NORMAL
-11.66155489,-5.755703059,-4.554512856,10.56046387,7.357289998,140.0888075,6.456397345,-0.050049592,3.153124285,7.257190814,1.251239796,-2.75272755,10.36026551,2.852826734,0.450446326,7.056992447,NORMAL
-11.66155489,-0.850843061,-2.952925917,8.558480201,5.855802243,46.39597162,7.056992447,-1.251239796,4.054016938,8.158083467,1.251239796,-2.75272755,10.86076143,2.452429999,1.051041428,6.156099794,NORMAL
-12.26215,-1.451438163,0.750743877,7.557488365,4.654612039,-120.0689708,7.257190814,-2.152132448,4.854810407,8.558480201,0.950942245,-3.353322652,10.96086061,2.152132448,1.351338979,5.155107958,NORMAL
-12.8627451,-1.751735714,20.1699855,9.759670405,4.854810407,-191.2394903,7.056992447,-2.152132448,5.255207141,9.359273671,1.251239796,-3.053025101,12.66254673,1.851834897,1.65163653,4.554512856,NORMAL
-13.16304265,22.07186999,20.87067979,10.96086061,5.255207141,-139.9887083,7.557488365,-2.452429999,5.755703059,10.05996796,1.65163653,-1.851834897,11.76165408,1.551537346,1.951934081,3.153124285,NORMAL
-14.46433204,38.28793774,-11.76165408,9.459372854,4.054016938,-133.8826581,7.9578851,-2.452429999,6.356298161,10.36026551,1.351338979,-2.352330816,7.657587549,1.551537346,2.252231632,1.351338979,NORMAL
-15.26512551,32.48218509,-30.28000305,10.05996796,3.153124285,-180.4287785,7.857785916,-2.052033265,6.756694896,10.66056306,1.051041428,-3.253223468,7.357289998,1.851834897,2.252231632,0.350347143,NORMAL
-15.66552224,26.77653162,-26.17593652,10.96086061,3.653620203,-92.14129854,7.857785916,-2.75272755,7.357289998,10.86076143,1.551537346,-3.553521019,9.759670405,1.251239796,2.252231632,0.050049592,NORMAL
-18.06790265,12.36224918,-32.78248264,7.557488365,3.353322652,76.02532998,8.25818265,-4.454413672,7.557488365,10.96086061,1.851834897,-4.454413672,7.357289998,0.150148775,2.452429999,-0.55054551,NORMAL
-19.5693904,5.255207141,-36.58625162,4.054016938,1.551537346,49.29884794,8.558480201,-5.655603876,7.557488365,11.16105898,1.351338979,-4.854810407,3.353322652,-0.350347143,2.452429999,-0.950942245,NORMAL
-17.7676051,23.77355612,-30.98069734,5.855802243,0.450446326,-125.5744259,8.558480201,-6.556496529,7.9578851,10.96086061,1.351338979,-4.854810407,3.753719387,-0.950942245,2.75272755,-1.251239796,NORMAL
-16.86671244,21.17097734,-38.18783856,8.858777752,0.050049592,-176.9253071,8.858777752,-6.656595712,8.458381018,10.96086061,2.452429999,-6.05600061,3.353322652,-2.052033265,3.453421836,-1.451438163,NORMAL
-17.96780346,-0.250247959,-33.38307774,9.459372854,-0.650644694,-136.0848402,9.05897612,-6.856794079,8.458381018,10.96086061,2.852826734,-7.457389181,0.150148775,-2.952925917,3.653620203,-2.052033265,NORMAL
-18.26810101,6.456397345,-3.85381857,8.758678569,-1.151140612,-143.1918822,9.05897612,-8.358281834,8.458381018,10.86076143,2.552529183,-7.457389181,-0.050049592,-3.353322652,3.353322652,-2.75272755,NORMAL
-18.26810101,14.46433204,4.854810407,7.557488365,-1.751735714,-134.2830549,8.858777752,-9.659571221,8.858777752,10.56046387,2.75272755,-7.757686732,0.650644694,-3.653620203,3.453421836,-3.653620203,NORMAL
-18.86869612,10.66056306,-9.359273671,6.956893263,-2.652628367,-97.54665446,9.05897612,-9.959868772,9.05897612,10.36026551,3.453421836,-8.358281834,-0.050049592,-4.454413672,3.753719387,-4.754711223,NORMAL
-18.9687953,27.07682918,-18.26810101,8.158083467,-3.253223468,-93.6427863,9.459372854,-9.659571221,9.159075303,10.26016632,3.653620203,-8.158083467,-0.950942245,-4.854810407,4.054016938,-5.055008774,NORMAL
-18.9687953,26.17593652,-31.48119326,8.558480201,-3.953917754,-74.72404059,9.659571221,-9.359273671,9.659571221,10.36026551,3.453421836,-8.458381018,-1.251239796,-5.455405509,4.254215305,-4.554512856,NORMAL
-18.9687953,-11.36125734,-45.99557488,6.756694896,-4.754711223,-36.98664836,9.659571221,-9.659571221,9.459372854,10.56046387,3.953917754,-10.16006714,-2.952925917,-6.356298161,4.254215305,-4.754711223,NORMAL
-18.66849775,-25.17494469,-43.59319448,4.854810407,-4.854810407,-32.08178836,9.759670405,-10.86076143,9.359273671,10.56046387,4.254215305,-10.16006714,-4.254215305,-6.856794079,4.054016938,-5.355306325,NORMAL
-18.3682002,-12.36224918,-41.79140917,4.054016938,-5.155107958,-27.07682918,9.759670405,-11.76165408,9.759670405,10.56046387,4.554512856,-8.958876936,-4.454413672,-6.256198978,4.554512856,-5.455405509,NORMAL
-17.7676051,-10.76066224,-48.29785611,4.354314488,-6.256198978,-11.16105898,9.459372854,-11.76165408,10.26016632,10.66056306,5.155107958,-9.559472038,-4.554512856,-6.856794079,5.155107958,-5.155107958,NORMAL
-17.16700999,-6.856794079,-48.99855039,5.155107958,-6.656595712,-9.259174487,9.459372854,-11.46135653,10.05996796,10.56046387,5.255207141,-10.16006714,-5.755703059,-8.057984283,4.95490959,-5.455405509,NORMAL
-16.46631571,0.650644694,-51.00053407,4.554512856,-6.856794079,-1.751735714,9.659571221,-11.96185245,10.26016632,10.56046387,5.255207141,-9.959868772,-7.557488365,-7.757686732,5.155107958,-5.655603876,NORMAL
-14.76462959,-3.253223468,-54.30380713,2.852826734,-7.557488365,6.356298161,9.05897612,-12.06195163,10.66056306,10.86076143,5.855802243,-11.36125734,-9.559472038,-7.757686732,5.755703059,-5.355306325,NORMAL
-13.76363775,-2.75272755,-49.29884794,2.552529183,-8.658579385,4.554512856,8.458381018,-11.36125734,10.56046387,10.86076143,6.156099794,-11.66155489,-9.359273671,-8.458381018,5.755703059,-5.455405509,NORMAL
-14.0639353,2.252231632,-39.08873121,2.552529183,-9.05897612,12.36224918,8.458381018,-11.16105898,10.36026551,10.56046387,6.656595712,-8.658579385,-8.158083467,-7.857785916,5.855802243,-5.755703059,NORMAL
-12.96284428,-0.250247959,-21.27107652,1.851834897,-9.559472038,18.9687953,7.657587549,-11.06095979,10.86076143,10.36026551,7.257190814,-8.458381018,-9.559472038,-7.257190814,6.656595712,-5.355306325,NORMAL
-10.86076143,0.650644694,-7.257190814,1.051041428,-10.26016632,15.76562142,7.056992447,-9.259174487,10.96086061,9.959868772,7.357289998,-10.76066224,-12.06195163,-8.057984283,6.956893263,-5.355306325,NORMAL
-9.659571221,4.254215305,-15.26512551,0.050049592,-10.76066224,19.5693904,6.956893263,-7.457389181,10.66056306,9.359273671,7.557488365,-10.16006714,-13.26314183,-8.458381018,6.956893263,-5.655603876,NORMAL
-7.857785916,0.950942245,-20.97077897,-1.551537346,-10.76066224,21.47127489,6.656595712,-7.457389181,10.86076143,9.359273671,7.9578851,-8.458381018,-14.6645304,-7.857785916,7.657587549,-5.055008774,NORMAL
-5.755703059,0.950942245,-13.56343938,-2.75272755,-11.46135653,19.26909285,5.855802243,-6.856794079,10.96086061,9.159075303,8.25818265,-8.458381018,-16.46631571,-7.757686732,8.25818265,-3.953917754,NORMAL
-5.155107958,3.053025101,-27.37712673,-3.953917754,-12.56244755,25.37514305,5.455405509,-5.355306325,10.96086061,9.159075303,8.458381018,-7.857785916,-16.46631571,-7.857785916,8.25818265,-3.653620203,NORMAL
-4.254215305,0.450446326,-56.10559243,-5.155107958,-13.16304265,26.87663081,4.554512856,-5.055008774,10.66056306,9.05897612,8.858777752,-6.956893263,-16.26611734,-7.257190814,8.458381018,-3.953917754,NORMAL
-2.152132448,1.051041428,-65.41481651,-6.256198978,-13.4633402,24.17395285,3.753719387,-4.554512856,10.36026551,8.558480201,9.05897612,-6.856794079,-17.06691081,-6.856794079,8.558480201,-3.85381857,NORMAL
-0.950942245,2.252231632,-59.70916304,-6.556496529,-14.16403449,27.17692836,3.153124285,-3.053025101,10.26016632,8.558480201,8.758678569,-6.356298161,-17.7676051,-6.356298161,8.758678569,-3.353322652,NORMAL
-0.350347143,5.555504692,-46.59616999,-6.656595712,-14.96482795,25.57534142,2.452429999,-2.352330816,10.36026551,8.458381018,9.05897612,-6.256198978,-19.46929122,-5.955901427,9.359273671,-2.75272755,NORMAL
0.750743877,12.96284428,-24.97474632,-7.457389181,-15.56542306,23.47325856,2.152132448,-1.851834897,10.05996796,7.657587549,9.159075303,-5.655603876,-20.97077897,-5.355306325,9.659571221,-2.652628367,NORMAL
1.65163653,6.656595712,-10.46036469,-9.259174487,-15.96581979,25.57534142,1.65163653,-0.850843061,9.959868772,6.756694896,9.159075303,-4.454413672,-20.06988632,-5.355306325,9.759670405,-2.352330816,NORMAL
2.552529183,-0.350347143,-4.454413672,-10.26016632,-16.46631571,22.67246509,0.450446326,-0.55054551,9.459372854,6.05600061,9.459372854,-4.854810407,-19.16899367,-5.455405509,9.759670405,-1.451438163,NORMAL
3.753719387,16.36621653,0.750743877,-10.26016632,-16.76661326,22.27206836,-0.250247959,-0.650644694,8.758678569,5.155107958,9.359273671,-5.455405509,-19.26909285,-4.754711223,9.759670405,-1.151140612,NORMAL
4.854810407,28.57831693,1.851834897,-10.86076143,-17.46730755,26.17593652,-0.55054551,0.050049592,8.158083467,4.654612039,8.758678569,-3.653620203,-18.26810101,-3.353322652,9.759670405,-0.950942245,NORMAL
4.95490959,16.26611734,7.557488365,-11.96185245,-17.7676051,26.87663081,-1.451438163,0.650644694,7.857785916,4.554512856,8.458381018,-1.851834897,-18.26810101,-2.75272755,10.05996796,-0.55054551,NORMAL
5.455405509,3.053025101,25.37514305,-12.56244755,-17.96780346,28.97871366,-2.452429999,0.650644694,7.257190814,3.753719387,8.25818265,-1.451438163,-19.26909285,-2.652628367,9.959868772,-0.650644694,NORMAL
6.756694896,-9.659571221,40.3900206,-13.16304265,-18.26810101,27.97772183,-3.053025101,1.051041428,6.456397345,3.053025101,7.857785916,-0.850843061,-18.56839857,-2.052033265,9.459372854,-0.850843061,NORMAL
7.657587549,-18.9687953,47.19676509,-13.16304265,-18.66849775,23.57335775,-3.953917754,2.252231632,5.855802243,2.452429999,7.357289998,-0.55054551,-18.3682002,-1.551537346,9.459372854,-0.55054551,NORMAL
6.756694896,-7.857785916,52.90241855,-12.96284428,-18.86869612,24.97474632,-4.554512856,2.152132448,5.255207141,1.951934081,7.056992447,-0.55054551,-20.67048142,-1.551537346,9.459372854,-0.350347143,NORMAL
6.456397345,-0.55054551,56.50598917,-13.4633402,-18.66849775,23.77355612,-4.754711223,1.051041428,4.854810407,1.851834897,6.656595712,0.450446326,-21.87167163,-0.650644694,8.858777752,-0.050049592,NORMAL
7.657587549,-13.16304265,51.80132753,-13.56343938,-18.3682002,20.27008469,-5.055008774,2.152132448,4.554512856,1.351338979,6.156099794,0.650644694,-22.17196918,0.450446326,8.858777752,0.350347143,NORMAL
8.158083467,-21.97177081,37.98764019,-13.76363775,-18.56839857,19.96978714,-5.755703059,3.153124285,4.054016938,0.950942245,6.156099794,0.050049592,-22.27206836,0.650644694,8.858777752,0.650644694,NORMAL
7.9578851,-18.86869612,27.07682918,-14.16403449,-18.86869612,16.26611734,-6.556496529,2.152132448,3.353322652,0.750743877,5.855802243,1.551537346,-19.5693904,0.750743877,8.458381018,0.750743877,NORMAL
7.9578851,-9.259174487,26.77653162,-14.0639353,-18.56839857,11.26115816,-7.15709163,1.851834897,2.552529183,0.350347143,5.155107958,3.053025101,-17.46730755,1.951934081,7.657587549,0.750743877,NORMAL
7.557488365,-0.55054551,28.97871366,-13.26314183,-17.66750591,12.16205081,-7.757686732,3.153124285,2.152132448,0.350347143,4.054016938,2.852826734,-19.86968795,2.75272755,7.557488365,0.750743877,NORMAL
7.056992447,-0.950942245,32.48218509,-12.8627451,-17.06691081,11.46135653,-8.658579385,3.453421836,1.851834897,0.450446326,2.852826734,3.653620203,-20.1699855,3.053025101,6.956893263,0.750743877,NORMAL
8.158083467,3.453421836,37.38704509,-12.06195163,-16.26611734,9.659571221,-9.559472038,2.552529183,0.750743877,-0.55054551,1.351338979,4.354314488,-15.56542306,4.054016938,5.755703059,0.750743877,NORMAL
8.558480201,9.659571221,33.48317693,-11.46135653,-15.56542306,12.36224918,-9.959868772,2.552529183,-0.250247959,-2.452429999,0.050049592,3.753719387,-12.56244755,4.654612039,4.654612039,0.750743877,NORMAL
7.857785916,-8.758678569,25.97573816,-11.06095979,-14.76462959,10.36026551,-10.76066224,2.852826734,-1.151140612,-4.154116121,-1.251239796,4.654612039,-12.66254673,4.554512856,3.953917754,1.351338979,NORMAL
8.158083467,-24.27405203,20.87067979,-10.16006714,-13.56343938,7.9578851,-11.66155489,2.552529183,-2.052033265,-5.355306325,-2.152132448,6.356298161,-11.16105898,5.255207141,3.053025101,1.851834897,NORMAL
8.758678569,-8.458381018,14.56443122,-9.05897612,-12.26215,9.759670405,-11.76165408,2.75272755,-2.652628367,-5.755703059,-2.952925917,5.855802243,-8.758678569,5.755703059,2.252231632,1.951934081,NORMAL
8.758678569,3.353322652,21.47127489,-8.358281834,-11.06095979,10.86076143,-11.36125734,3.453421836,-2.75272755,-5.155107958,-3.353322652,6.356298161,-7.757686732,5.755703059,1.951934081,2.452429999,NORMAL
9.05897612,3.053025101,35.28496223,-7.557488365,-10.16006714,14.46433204,-11.46135653,3.053025101,-2.952925917,-5.155107958,-4.154116121,8.25818265,-6.856794079,6.656595712,1.551537346,2.852826734,NORMAL
9.05897612,10.66056306,29.17891203,-6.856794079,-9.05897612,16.36621653,-12.26215,1.851834897,-3.553521019,-5.455405509,-5.055008774,8.458381018,-5.955901427,7.9578851,0.750743877,3.453421836,NORMAL
8.458381018,10.36026551,20.27008469,-5.955901427,-8.158083467,15.66552224,-12.36224918,2.75272755,-4.154116121,-5.355306325,-5.655603876,7.9578851,-4.854810407,8.458381018,-0.050049592,3.953917754,NORMAL
8.25818265,2.552529183,27.47722591,-5.055008774,-6.956893263,15.66552224,-12.56244755,3.653620203,-4.854810407,-5.755703059,-6.556496529,8.558480201,-3.553521019,8.858777752,-0.950942245,3.953917754,NORMAL
8.858777752,5.855802243,31.28099489,-4.454413672,-5.655603876,13.36324102,-12.96284428,2.75272755,-5.455405509,-6.356298161,-7.757686732,9.159075303,-2.352330816,9.459372854,-1.851834897,4.054016938,NORMAL
8.758678569,8.158083467,31.88158999,-3.353322652,-4.254215305,9.459372854,-13.76363775,2.852826734,-5.955901427,-6.356298161,-8.458381018,10.05996796,-1.251239796,10.05996796,-2.75272755,4.654612039,NORMAL
7.857785916,7.857785916,27.97772183,-2.052033265,-3.253223468,4.354314488,-14.0639353,2.75272755,-6.656595712,-6.856794079,-9.05897612,11.86175326,0.650644694,10.56046387,-3.653620203,4.554512856,NORMAL
7.357289998,11.16105898,1.351338979,-1.451438163,-1.851834897,-0.250247959,-14.36423285,1.251239796,-7.457389181,-8.057984283,-9.959868772,12.16205081,1.851834897,10.86076143,-4.454413672,3.953917754,NORMAL
7.657587549,10.86076143,-23.67345693,-0.950942245,-0.650644694,-2.152132448,-14.46433204,2.852826734,-8.057984283,-8.658579385,-10.76066224,11.26115816,1.65163653,10.96086061,-5.155107958,4.354314488,NORMAL
7.857785916,11.76165408,-26.37613489,-0.350347143,0.050049592,-3.653620203,-14.16403449,5.555504692,-8.458381018,-8.758678569,-11.16105898,11.86175326,1.951934081,12.06195163,-5.955901427,5.155107958,NORMAL
7.056992447,13.36324102,-23.37315938,-0.050049592,0.950942245,-4.154116121,-14.46433204,3.753719387,-9.359273671,-8.958876936,-11.76165408,14.16403449,2.252231632,13.26314183,-6.856794079,5.755703059,NORMAL
6.356298161,7.9578851,-14.76462959,0.650644694,2.152132448,-4.754711223,-15.56542306,2.152132448,-10.16006714,-9.259174487,-12.56244755,15.36522469,2.75272755,13.96383612,-7.857785916,6.656595712,NORMAL
6.156099794,10.66056306,-4.754711223,1.351338979,3.453421836,-7.15709163,-15.36522469,3.153124285,-10.86076143,-9.559472038,-13.16304265,15.66552224,4.054016938,14.56443122,-8.458381018,7.657587549,NORMAL
6.156099794,19.26909285,-12.96284428,1.251239796,4.654612039,-8.658579385,-14.46433204,2.852826734,-11.46135653,-9.959868772,-13.76363775,16.26611734,5.455405509,15.36522469,-8.958876936,8.758678569,NORMAL
6.356298161,12.16205081,-21.57137407,2.252231632,5.755703059,-10.56046387,-14.36423285,2.452429999,-12.26215,-10.76066224,-13.86373693,16.66651408,6.756694896,15.66552224,-9.859769589,8.858777752,NORMAL
6.156099794,1.951934081,-14.76462959,3.753719387,6.456397345,-13.86373693,-14.36423285,3.753719387,-12.96284428,-11.96185245,-13.86373693,15.96581979,7.857785916,15.06492714,-10.86076143,7.056992447,NORMAL
5.255207141,3.453421836,-12.56244755,2.452429999,6.756694896,-14.36423285,-14.0639353,2.852826734,-13.4633402,-13.16304265,-14.16403449,15.66552224,7.857785916,14.46433204,-11.16105898,7.056992447,NORMAL
4.354314488,6.656595712,-19.5693904,1.65163653,6.956893263,-13.16304265,-13.56343938,1.65163653,-13.56343938,-13.56343938,-14.16403449,16.06591897,8.158083467,14.46433204,-11.36125734,9.159075303,NORMAL
3.653620203,9.659571221,-25.77553979,3.353322652,7.557488365,-15.06492714,-12.96284428,2.552529183,-13.86373693,-13.56343938,-14.0639353,16.26611734,8.758678569,15.36522469,-11.96185245,9.659571221,NORMAL
2.852826734,12.66254673,-29.3791104,3.653620203,7.9578851,-16.16601816,-12.56244755,2.852826734,-14.6645304,-14.0639353,-14.46433204,17.26710918,8.758678569,16.56641489,-12.66254673,8.858777752,NORMAL
2.452429999,14.26413367,-31.28099489,3.353322652,7.9578851,-15.66552224,-12.8627451,2.75272755,-15.36522469,-15.06492714,-15.26512551,18.66849775,10.26016632,16.66651408,-13.16304265,8.758678569,NORMAL
1.65163653,18.66849775,-36.98664836,4.054016938,7.9578851,-16.76661326,-12.56244755,3.153124285,-15.96581979,-15.66552224,-15.26512551,18.46829938,11.46135653,16.26611734,-13.56343938,8.25818265,NORMAL
0.450446326,15.16502632,-34.78446632,4.054016938,8.25818265,-16.86671244,-11.76165408,1.551537346,-16.46631571,-15.86572061,-15.26512551,17.7676051,9.359273671,16.56641489,-14.0639353,7.857785916,NORMAL
-0.250247959,1.851834897,-9.05897612,3.953917754,8.25818265,-15.56542306,-11.46135653,0.050049592,-16.76661326,-16.26611734,-15.26512551,17.7676051,7.857785916,17.16700999,-14.36423285,7.657587549,NORMAL
-0.250247959,-5.355306325,13.06294347,4.554512856,8.458381018,-16.16601816,-11.06095979,0.650644694,-16.76661326,-16.56641489,-15.26512551,18.16800183,9.659571221,16.96681163,-14.76462959,7.657587549,NORMAL
-0.55054551,-8.458381018,7.657587549,4.654612039,8.858777752,-17.36720836,-10.46036469,1.351338979,-17.16700999,-16.86671244,-14.96482795,18.06790265,10.56046387,16.36621653,-15.26512551,8.458381018,NORMAL
-1.551537346,-9.259174487,1.65163653,4.654612039,9.159075303,-17.46730755,-10.26016632,0.050049592,-17.66750591,-17.46730755,-14.46433204,16.96681163,10.86076143,15.96581979,-15.36522469,8.858777752,NORMAL
-2.352330816,-1.451438163,16.06591897,4.654612039,9.459372854,-17.36720836,-9.359273671,-0.950942245,-17.66750591,-17.7676051,-13.56343938,17.16700999,11.46135653,15.76562142,-15.26512551,7.857785916,NORMAL
-2.75272755,-4.254215305,30.68039979,4.354314488,10.05996796,-16.16601816,-8.057984283,-1.751735714,-17.36720836,-17.36720836,-12.96284428,18.76859693,8.558480201,16.36621653,-15.06492714,7.357289998,NORMAL
-3.253223468,-23.47325856,27.17692836,4.554512856,10.05996796,-14.46433204,-7.557488365,-2.452429999,-17.06691081,-17.06691081,-12.66254673,18.9687953,6.356298161,16.06591897,-14.6645304,7.9578851,NORMAL
-3.85381857,-21.37117571,21.97177081,4.854810407,9.959868772,-13.76363775,-7.257190814,-3.253223468,-16.56641489,-17.06691081,-11.76165408,16.56641489,10.36026551,13.86373693,-14.46433204,8.158083467,NORMAL
-4.554512856,6.456397345,35.4851606,4.854810407,10.05996796,-13.76363775,-6.556496529,-3.85381857,-16.26611734,-17.06691081,-10.86076143,15.16502632,13.06294347,12.66254673,-14.46433204,7.9578851,NORMAL
-5.055008774,19.86968795,52.0015259,5.155107958,10.05996796,-12.96284428,-5.955901427,-4.254215305,-15.96581979,-16.76661326,-10.26016632,15.76562142,9.959868772,13.66353857,-13.86373693,9.05897612,NORMAL
-5.355306325,16.36621653,57.80727855,4.95490959,9.759670405,-11.06095979,-5.355306325,-5.055008774,-15.66552224,-16.26611734,-9.559472038,15.16502632,8.25818265,13.36324102,-12.96284428,10.96086061,NORMAL
-5.955901427,23.77355612,62.81223774,4.854810407,9.759670405,-11.66155489,-4.854810407,-5.155107958,-15.36522469,-16.16601816,-8.958876936,12.36224918,9.459372854,10.96086061,-12.96284428,10.96086061,NORMAL
-6.856794079,34.8845655,56.3057908,5.255207141,9.759670405,-15.56542306,-4.254215305,-5.055008774,-15.26512551,-16.46631571,-8.458381018,10.56046387,8.758678569,9.459372854,-12.8627451,7.657587549,NORMAL
-7.15709163,32.88258183,37.68734264,4.554512856,9.459372854,-14.6645304,-3.253223468,-6.356298161,-14.6645304,-15.86572061,-8.057984283,10.96086061,7.9578851,8.858777752,-12.26215,5.455405509,NORMAL
-6.956893263,28.67841611,34.38406958,3.453421836,9.459372854,-9.559472038,-2.452429999,-8.358281834,-13.86373693,-14.76462959,-7.757686732,9.759670405,8.25818265,7.9578851,-11.96185245,6.156099794,NORMAL
-6.956893263,27.07682918,34.08377203,3.953917754,9.05897612,-8.958876936,-2.052033265,-8.057984283,-13.56343938,-14.36423285,-7.257190814,6.656595712,6.956893263,8.158083467,-11.96185245,5.155107958,NORMAL
-6.656595712,22.87266346,14.86472877,4.654612039,8.158083467,-9.959868772,-0.950942245,-7.15709163,-13.16304265,-13.76363775,-6.656595712,5.455405509,6.05600061,8.858777752,-11.36125734,3.453421836,NORMAL
-5.955901427,27.17692836,-2.452429999,3.953917754,7.9578851,-9.659571221,-0.050049592,-7.857785916,-12.36224918,-12.36224918,-6.356298161,6.156099794,6.956893263,7.9578851,-11.06095979,3.453421836,NORMAL
-4.854810407,37.38704509,-13.56343938,3.153124285,8.25818265,-11.66155489,0.450446326,-9.05897612,-11.36125734,-10.56046387,-5.955901427,5.455405509,6.456397345,6.756694896,-10.76066224,2.552529183,NORMAL
-4.754711223,32.48218509,-22.17196918,3.353322652,8.158083467,-11.36125734,1.851834897,-9.259174487,-10.56046387,-9.05897612,-5.155107958,3.653620203,6.656595712,6.05600061,-10.16006714,1.351338979,NORMAL
-4.454413672,18.3682002,-12.36224918,3.953917754,7.857785916,-6.956893263,2.852826734,-9.559472038,-9.859769589,-7.757686732,-4.754711223,1.951934081,7.357289998,4.354314488,-9.659571221,1.65163653,NORMAL
-2.952925917,14.46433204,1.551537346,2.75272755,7.557488365,-7.15709163,3.753719387,-10.26016632,-8.758678569,-6.656595712,-3.953917754,-0.55054551,5.455405509,2.152132448,-9.05897612,0.150148775,NORMAL
-1.551537346,14.56443122,0.150148775,0.950942245,6.756694896,-10.46036469,4.654612039,-10.76066224,-7.757686732,-5.355306325,-3.053025101,-2.652628367,4.254215305,0.650644694,-8.658579385,-2.352330816,NORMAL
-1.451438163,7.657587549,-1.851834897,1.351338979,6.156099794,-11.16105898,5.455405509,-10.86076143,-7.257190814,-4.254215305,-2.75272755,-2.452429999,6.356298161,-0.350347143,-8.658579385,-3.553521019,NORMAL
-0.850843061,-1.551537346,-4.154116121,1.951934081,5.555504692,-11.96185245,6.156099794,-11.36125734,-6.356298161,-3.353322652,-2.452429999,-2.952925917,6.456397345,-1.251239796,-8.358281834,-4.554512856,NORMAL
0.150148775,-7.457389181,-10.16006714,0.450446326,4.654612039,-12.56244755,6.956893263,-11.36125734,-4.754711223,-1.751735714,-1.151140612,-4.254215305,4.554512856,-2.152132448,-7.257190814,-4.854810407,NORMAL
1.051041428,-12.56244755,-4.754711223,0.050049592,3.653620203,-11.76165408,7.557488365,-10.46036469,-3.553521019,0.050049592,0.050049592,-4.554512856,3.753719387,-2.952925917,-6.856794079,-3.353322652,NORMAL
2.152132448,-11.06095979,-1.151140612,0.650644694,3.053025101,-11.76165408,7.557488365,-10.26016632,-3.053025101,0.350347143,0.650644694,-4.454413672,2.452429999,-3.353322652,-6.656595712,-3.953917754,NORMAL
3.453421836,4.554512856,-16.76661326,-0.050049592,2.152132448,-12.56244755,7.657587549,-11.66155489,-2.052033265,0.650644694,1.251239796,-4.854810407,0.450446326,-4.154116121,-6.356298161,-7.257190814,NORMAL
4.654612039,13.96383612,-33.98367285,-0.250247959,0.950942245,-12.66254673,8.158083467,-11.06095979,-0.950942245,1.251239796,1.951934081,-5.655603876,1.251239796,-5.655603876,-6.356298161,-7.857785916,NORMAL
5.755703059,3.653620203,-43.29289693,-0.55054551,0.050049592,-13.76363775,8.858777752,-8.758678569,0.050049592,1.951934081,3.353322652,-6.656595712,2.152132448,-6.556496529,-6.05600061,-6.256198978,NORMAL
6.756694896,6.356298161,-51.70122835,-2.352330816,-0.950942245,-14.16403449,9.659571221,-8.658579385,1.551537346,2.852826734,4.654612039,-7.557488365,0.950942245,-7.15709163,-5.055008774,-6.05600061,NORMAL
7.9578851,20.27008469,-54.60410468,-3.553521019,-2.052033265,-13.56343938,10.05996796,-9.859769589,3.053025101,3.953917754,5.755703059,-8.658579385,-0.55054551,-8.458381018,-4.154116121,-7.757686732,NORMAL
9.05897612,1.951934081,-51.70122835,-3.85381857,-2.652628367,-13.76363775,10.26016632,-8.958876936,3.453421836,4.354314488,7.056992447,-9.859769589,-1.851834897,-9.259174487,-3.053025101,-9.05897612,NORMAL
9.959868772,-24.67444877,-47.69726101,-4.554512856,-3.353322652,-14.36423285,10.36026551,-7.757686732,4.054016938,4.554512856,7.857785916,-10.16006714,-3.053025101,-9.559472038,-2.352330816,-10.76066224,NORMAL
10.96086061,-26.47623407,-40.49011978,-4.254215305,-4.454413672,-14.36423285,10.36026551,-8.057984283,5.255207141,5.155107958,7.9578851,-9.559472038,-4.554512856,-10.86076143,-1.751735714,-12.96284428,NORMAL
11.86175326,-33.08278019,-32.98268101,-3.653620203,-5.355306325,-13.86373693,10.56046387,-8.057984283,6.656595712,6.156099794,9.05897612,-9.859769589,-5.655603876,-12.06195163,-0.55054551,-13.86373693,NORMAL
12.46234836,-36.28595407,-27.37712673,-4.454413672,-5.955901427,-14.16403449,11.16105898,-7.15709163,7.657587549,6.756694896,10.56046387,-10.86076143,-4.754711223,-12.26215,1.051041428,-14.46433204,NORMAL
13.26314183,-11.06095979,-19.5693904,-5.055008774,-6.356298161,-15.56542306,11.56145571,-6.356298161,8.558480201,6.956893263,11.16105898,-11.16105898,-3.553521019,-12.06195163,2.452429999,-16.76661326,NORMAL
14.16403449,-3.553521019,-10.86076143,-6.05600061,-6.556496529,-16.16601816,12.06195163,-5.755703059,9.459372854,7.557488365,11.86175326,-10.86076143,-5.455405509,-11.66155489,3.753719387,-16.86671244,NORMAL
14.46433204,-25.17494469,-6.256198978,-7.557488365,-6.956893263,-15.96581979,12.16205081,-4.554512856,10.26016632,8.758678569,12.46234836,-11.06095979,-7.757686732,-11.16105898,5.255207141,-13.86373693,NORMAL
13.96383612,-21.37117571,-4.254215305,-7.557488365,-7.557488365,-16.26611734,12.36224918,-2.152132448,10.56046387,9.159075303,12.46234836,-11.96185245,-6.856794079,-11.66155489,5.855802243,-13.86373693,NORMAL
13.96383612,0.050049592,-1.751735714,-7.557488365,-7.857785916,-15.26512551,12.16205081,0.050049592,10.56046387,9.05897612,12.36224918,-12.36224918,-6.05600061,-12.26215,6.156099794,-15.96581979,NORMAL
14.16403449,-0.950942245,-1.151140612,-7.857785916,-7.857785916,-14.76462959,11.86175326,1.251239796,10.96086061,8.558480201,12.76264591,-11.46135653,-6.356298161,-12.26215,7.257190814,-16.76661326,NORMAL
13.96383612,-9.05897612,-4.554512856,-6.956893263,-8.158083467,-17.46730755,11.26115816,2.452429999,11.46135653,8.558480201,12.96284428,-10.86076143,-5.755703059,-12.56244755,8.458381018,-17.7676051,NORMAL
13.96383612,-6.05600061,-8.958876936,-7.757686732,-8.158083467,-16.16601816,11.16105898,3.753719387,11.86175326,9.05897612,13.26314183,-11.36125734,-5.155107958,-12.66254673,9.05897612,-17.7676051,NORMAL
14.26413367,-1.451438163,-14.0639353,-9.859769589,-7.557488365,-10.76066224,10.86076143,3.453421836,12.06195163,9.159075303,12.96284428,-10.56046387,-5.655603876,-12.06195163,9.359273671,-15.26512551,NORMAL
14.16403449,0.050049592,-19.76958877,-9.259174487,-7.257190814,-9.359273671,9.959868772,3.453421836,12.16205081,9.159075303,12.46234836,-10.26016632,-5.655603876,-12.06195163,10.26016632,-14.16403449,NORMAL
13.36324102,-3.253223468,-17.96780346,-8.758678569,-7.15709163,-10.86076143,9.359273671,4.854810407,12.16205081,9.459372854,12.46234836,-11.16105898,-5.955901427,-12.26215,10.96086061,-14.6645304,NORMAL
12.96284428,-7.15709163,-9.259174487,-9.659571221,-6.556496529,-11.06095979,8.758678569,5.555504692,12.36224918,9.459372854,12.36224918,-10.16006714,-6.256198978,-11.36125734,11.16105898,-14.46433204,NORMAL
12.36224918,-4.154116121,-2.652628367,-9.959868772,-5.955901427,-12.36224918,8.158083467,6.05600061,12.46234836,9.05897612,11.76165408,-9.559472038,-4.754711223,-11.06095979,11.46135653,-15.66552224,NORMAL
11.56145571,-3.553521019,4.254215305,-10.56046387,-5.355306325,-12.66254673,7.357289998,7.257190814,12.96284428,9.05897612,11.16105898,-12.06195163,-2.952925917,-12.06195163,12.16205081,-15.96581979,NORMAL
11.16105898,-10.16006714,9.05897612,-11.66155489,-4.554512856,-8.758678569,6.656595712,8.158083467,12.96284428,9.359273671,10.66056306,-12.66254673,-2.452429999,-12.36224918,12.46234836,-13.76363775,NORMAL
10.96086061,-13.4633402,5.755703059,-11.46135653,-3.953917754,-5.155107958,5.855802243,9.159075303,12.46234836,9.359273671,9.759670405,-9.659571221,-1.751735714,-11.16105898,12.66254673,-12.8627451,NORMAL
10.86076143,-16.16601816,4.854810407,-11.46135653,-3.253223468,-2.352330816,4.854810407,11.16105898,12.46234836,9.359273671,9.05897612,-8.658579385,-0.350347143,-10.76066224,12.96284428,-12.26215,NORMAL
10.26016632,-20.06988632,8.458381018,-11.76165408,-2.452429999,0.050049592,3.353322652,12.36224918,12.46234836,8.858777752,8.25818265,-9.659571221,-0.350347143,-11.16105898,12.96284428,-10.46036469,NORMAL
